#   1 FLUX_AUTO              Flux within a Kron-like elliptical aperture                [count]
#   2 FLUXERR_AUTO           RMS error for AUTO flux                                    [count]
#   3 XWIN_IMAGE             Windowed position estimate along x                         [pixel]
#   4 YWIN_IMAGE             Windowed position estimate along y                         [pixel]
#   5 ERRAWIN_IMAGE          RMS windowed pos error along major axis                    [pixel]
#   6 ERRBWIN_IMAGE          RMS windowed pos error along minor axis                    [pixel]
#   7 ERRTHETAWIN_IMAGE      Windowed error ellipse pos angle (CCW/x)                   [deg]
 2.50355e+07      4990.91   1899.9328    391.0023   0.00082   0.00082 -83.18
    187158.8     2218.988   2006.4130    321.7207   0.03084   0.03084  15.85
    765921.1     4059.444   2028.5447    374.8526   0.02556   0.02556 -89.98
     1432006     1715.269   1977.4477    399.6257   0.00136   0.00136 -87.46
    239036.5     4443.125   1735.4730    494.3152   0.13785   0.13785  -6.53
    15136.89     1737.346   1805.2619    458.3273   0.46975   0.46975  12.71
    40701.96     2735.864   1714.9571    498.3090   0.22713   0.22713   1.36
    31582.16     1619.265   2005.8168    495.0002   0.09382   0.09382  89.55
    3464.758     790.5797   1987.2514    507.2739   0.26873   0.26873  82.96
    8081.484     1246.964   1935.0451    515.4982   0.23680   0.23680   0.11
    66411.45      2124.22   1658.9964    542.5690   0.07626   0.07626  88.73
    11459.59     1522.213   1955.0929    524.1153   0.41661   0.41661  74.51
    10854.95       1423.9   2038.0774    532.1283   0.25849   0.25849 -80.15
    51262.95     1908.766   1950.7447    556.0750   0.06793   0.06793  -0.79
    35917.03     2120.629   1792.5368    560.1004   0.16824   0.16824  -1.70
    59643.74     2098.953   1579.9033    573.0536   0.10697   0.10697  28.32
    15039.46      1767.79   1718.3625    552.9456   0.26837   0.26837  -0.63
    21724.96     1801.953   1695.7643    583.5837   0.16647   0.16647   9.18
    5523.734     1033.006   1781.8241    574.2368   0.29046   0.29046  55.73
    8848.344     1429.243   1704.0061    580.2462   0.28902   0.28902   4.52
    18755.11     1271.179   1620.4603    586.4310   0.14117   0.14117 -59.76
    8564.891     1329.789   1812.1468    587.9428   0.31973   0.31973  13.32
    7096.867     1151.631   1722.6481    599.9656   0.32429   0.32429 -84.75
    21811.46     1413.154   1739.3799    611.6945   0.18327   0.18327 -13.18
    33832.87     2120.629   1955.7259    612.2409   0.13682   0.13682 -84.71
    17627.67     1856.128   1571.9797    608.8139   0.24046   0.24046  -3.51
    4304.395     1069.262   1762.6043    604.8105   0.35062   0.35062  78.25
    17275.21     1590.771   1737.5898    618.4189   0.23338   0.23338 -69.99
    350831.3     2191.336   1600.6578    670.2847   0.00911   0.00911 -71.97
    67816.56     1271.179   1838.6638    628.1615   0.02477   0.02477  22.64
    11130.05     1651.887   1550.7527    620.7849   0.31230   0.31230  57.65
     1412145     1719.707   1608.3537    654.7261   0.00146   0.00146  14.75
    17185.88     1402.325   1805.0760    659.3291   0.12865   0.12865  87.82
    22638.18      1822.98   2026.5391    634.3842   0.21107   0.21107  -0.12
    7804.789     1177.808   1676.4408    639.5962   0.36690   0.36690 -41.05
    64430.88     2163.331   1894.9058    687.9921   0.11195   0.11195  88.43
    23435.33     2062.319   1586.8558    664.8675   0.21550   0.21550  45.86
    329021.4     3408.248   1927.8834    717.6882   0.03754   0.03754  -5.45
    54893.85     1701.886   1799.1523    695.6056   0.07242   0.07242  52.58
    43439.39     1801.953   1678.2507    696.8576   0.06822   0.06822  77.88
     8191.75      676.261   2027.7336    684.7690   0.03872   0.03804   1.87
    102084.2     2394.129   1902.4641    718.5641   0.05700   0.05700  27.11
    5786.973     740.8068   2045.3605    701.4301   0.22203   0.22123 -90.00
    50666.88     1460.891   1651.6418    713.1637   0.04157   0.04157   2.87
    13847.28      1306.66   1453.5665    723.5312   0.14365   0.14365 -39.16
    30699.04     2286.656   1487.6620    734.1344   0.19644   0.19644  -9.43
    13339.65     1732.953   1568.4388    728.7145   0.27195   0.27195   6.11
    23697.39     2548.347   1867.2295    739.7017   0.32799   0.32799 -84.99
    23381.67     1512.166   1535.3221    734.5493   0.10692   0.10692   1.29
    6428.219     1203.415   1725.6732    728.9104   0.36038   0.36038  66.66
    43934.88     2273.283   1903.8640    747.6904   0.11889   0.11889 -84.63
    7771.539     1164.793   1723.0585    758.9539   0.29610   0.29610  51.78
    24252.47     1900.763   1934.7614    762.5205   0.16754   0.16754 -86.82
    5846.371     818.9927   1962.9198    756.6588   0.11672   0.08236  74.92
    111339.3     1888.694   1808.0759    789.1083   0.03151   0.03151  77.49
    11434.88     1512.166   1359.3492    763.7158   0.25799   0.25799  -6.51
    148780.7     3034.395   1589.0050    814.9251   0.07625   0.07625  -6.03
       28911     2425.757   1533.4738    789.8743   0.26494   0.26494 -88.32
     8324.84     1253.061   1871.6373    777.7497   0.23855   0.23855  -9.84
    15656.88     1780.678   1822.8034    786.7347   0.23717   0.23717 -29.69
    74271.44     2607.481   1765.6639    797.6266   0.13137   0.13137  22.87
    6782.602      1306.66   1445.8474    788.7061   0.29251   0.29251 -17.52
    180898.2      2374.95   1737.5088    835.9808   0.02475   0.02475 -74.36
    8120.508     1537.162   1393.8073    791.3116   0.35125   0.35125  49.78
     55320.9     2991.388   1427.0141    819.7639   0.19972   0.19972 -76.76
    11193.47     1184.261   1445.4713    799.5749   0.24331   0.24331  77.95
    24792.83      1439.87   1687.2088    805.1395   0.13210   0.13210 -36.19
    18030.78      1111.21   1508.2706    805.9091   0.10598   0.10598  81.80
    13407.83     1413.154   1986.7023    804.3533   0.25430   0.25430  76.32
    19562.19     2381.361   1410.5895    813.2542   0.34902   0.34902   8.53
    5108.523     1069.262   1394.8585    804.4606   0.27209   0.27209 -85.86
    54449.16     2963.227   2042.6216    827.5370   0.34401   0.30527 -90.00
     4075.32     898.8591   1342.4714    811.0713   0.33704   0.33704  86.94
    40232.26     2145.642   1433.6391    829.4123   0.10078   0.10077 -11.58
    15212.96     1839.629   1662.1322    828.6132   0.35767   0.35767  -3.99
    68483.02     1329.789   1574.8468    839.5566   0.02719   0.02719   1.80
    16159.49     1517.198   1648.7370    829.8637   0.13870   0.13870  87.23
    33541.98     2036.283   1420.7075    838.4235   0.11183   0.11183  -0.86
     9447.34     1413.154   1811.6764    825.0179   0.44756   0.44756 -89.71
    35993.55      2058.62   1492.1270    841.9755   0.12779   0.12779 -65.22
    46182.04     2145.642   1745.4810    848.4473   0.07849   0.07849  26.03
    12405.41      676.261   1315.2779    833.1587   0.02051   0.01912   2.12
    24437.48      1767.79   1672.3123    846.2877   0.24817   0.24817 -69.62
    4951.395     940.3027   1545.2214    836.2715   0.33525   0.33525 -50.29
      192597     2592.824   1703.0849    897.6396   0.03220   0.03220 -85.04
    65824.55     1374.879   1501.8654    870.7221   0.03148   0.03148 -76.71
    10695.41     1418.537   1967.9140    862.4491   0.36648   0.36648 -89.81
     3363599     1884.654   1446.5843    906.2764   0.00079   0.00079  -8.72
    9004.547     1537.162   1895.7467    869.4765   0.37379   0.37379 -88.65
     5842.66      1190.68   1956.1556    868.0251   0.30349   0.30349 -81.10
    36304.84     2542.357   1460.7769    892.9747   0.22018   0.22018 -22.03
    19311.92     1688.397   1624.7168    884.1592   0.21997   0.21997  -8.03
    47685.73      2283.32   1194.6638    905.8183   0.15505   0.15505  84.17
    23009.77     2032.536   1634.2566    900.1981   0.19002   0.19002 -48.27
    10863.77     1542.112   1445.5300    884.5190   0.24656   0.24656  38.35
    31300.92     2323.033   1232.9018    911.2438   0.21749   0.21749 -60.36
     8622.43     1312.481   1574.4969    890.4618   0.28618   0.28618 -10.75
    16608.82     1507.117   1614.3231    904.7213   0.13998   0.13998 -38.41
    18146.21     1896.748   1543.7522    909.7497   0.27828   0.27828 -23.67
    10261.68     923.9484   1659.0866    908.3999   0.20841   0.20841  82.91
     28372.5     1566.631   1995.4926    921.6851   0.06762   0.06762 -89.80
    6942.453     923.9484   1850.9690    912.6550   0.29409   0.29409  89.94
    13837.62     1363.746   1935.1675    941.1367   0.14303   0.14303 -47.13
    13320.16     1240.836   1781.1673    945.5784   0.16595   0.16595 -78.68
    11488.61     780.8789   1142.5996    938.1354   0.11341   0.11341  18.39
    41663.47     1571.489   1665.3300    962.8645   0.08743   0.08743 -87.75
    59929.41     2098.953   1596.4760    968.2509   0.08046   0.08046  -2.23
    5795.418     1184.261   1837.3360    955.4146   0.27861   0.27861 -68.85
    9661.844     1374.879   1956.3956    963.2628   0.26100   0.26100 -81.09
     2946336     11435.94    991.1955   1130.3135   0.06480   0.06480  27.84
    17442.51     1732.953   1932.3607    978.5198   0.21800   0.21800   4.28
      5669.5     890.3389   2045.3673    967.7587   0.27112   0.26867  90.00
    5234.105     846.4526   1370.1149    971.5638   0.29881   0.29881  86.27
    9939.371      1439.87   1137.1943    968.6672   0.38572   0.38572   5.05
    9763.879     1466.099   1842.9264    976.8595   0.32295   0.32295  11.13
    69067.55     1329.789   1752.6427    992.4310   0.02540   0.02540  62.61
    44728.22     1537.162   1651.9680    994.7943   0.07658   0.07658  88.93
    11041.71     1265.168   1935.7446    986.3728   0.20287   0.20287 -77.59
    108560.6     2303.262   1594.8673   1011.5262   0.04292   0.04292  -0.37
    80694.27     2400.488   1168.3063   1012.9068   0.07319   0.07319   6.68
     4279.07     790.5797   1951.0835    996.2322   0.25848   0.25848  87.97
    18536.06     1789.218   1918.7058   1006.5612   0.19110   0.19110 -86.87
    13798.89     1674.799   1227.0547   1003.8918   0.22403   0.22403  24.31
     18105.3     2036.283   1702.5217   1002.5062   0.44014   0.44014   0.20
    16593.48     1164.793   1691.9677   1011.8430   0.12026   0.12026 -56.12
    73690.82     1987.026   1938.1576   1051.4923   0.09405   0.09405 -89.56
       20090     1402.325   1864.2945   1019.3148   0.12982   0.12982  54.67
    22637.77     2208.659   1241.1892   1027.9651   0.19778   0.19778  88.87
     4930.18     907.2993   1644.6756   1016.4199   0.22107   0.22107 -84.06
    8212.516     1455.664   1220.6054   1025.4898   0.39835   0.39835 -60.92
    27114.11     1502.051   1598.9918   1035.1160   0.08758   0.08758  67.62
    9024.793     1512.166   1312.3539   1033.1484   0.35685   0.35685 -85.46
    12687.34     1595.556   1765.4770   1032.9892   0.29603   0.29603 -88.91
    3495.184     493.8712   2045.3076   1035.9562   0.26819   0.26811 -89.98
    7761.004     1294.941   1214.2860   1037.0245   0.36802   0.36802 -84.08
    12587.42     1460.891   1182.8790   1046.6111   0.23819   0.23819   4.17
    114610.5     2963.227   1895.7889   1069.6895   0.06987   0.06987 -73.99
    10306.12     1576.331   1196.8737   1053.8703   0.39563   0.39563 -71.96
    11835.61     1532.195   1890.8165   1056.5282   0.26782   0.26782   0.61
    10173.43      1190.68   1915.9645   1064.4949   0.25841   0.25841  89.62
    89691.47     2316.461   1971.9345   1082.5963   0.05450   0.05450 -85.62
    11463.41     1527.212   1796.9066   1068.2426   0.18345   0.18345 -80.51
    440473.3     5010.724   1968.4793   1122.8707   0.04771   0.04771  -1.40
    6984.707     1184.261   1812.2417   1084.5304   0.26124   0.26124  87.71
    36155.01     1975.485   1264.7550   1114.4985   0.14188   0.14188  86.17
    11541.16     972.1864   1838.7321   1074.7857   0.15910   0.15910  53.53
    7573.023     1460.891   1462.4485   1069.4680   0.28245   0.28245  80.34
    12876.29     1581.159   1883.5380   1068.7759   0.40997   0.40997  -0.11
    38792.87     1445.154   2039.2200   1087.3585   0.07697   0.07697   3.40
    11588.33     1481.614   1784.4993   1075.9795   0.25607   0.25607 -89.17
    58228.27     2358.849   1023.8786   1101.3844   0.10729   0.10729   1.93
    70079.39      1439.87   1998.2841   1094.7153   0.02522   0.02522 -65.63
    62505.77     1294.941   1356.6653   1093.4176   0.02871   0.02871  -1.69
    122587.5     5095.197   1966.5366   1108.1381   0.21228   0.21228  -3.06
    11616.95     1455.664   1056.8113   1081.1681   0.36622   0.36622  69.49
    5917.895     1018.142   1220.8963   1083.1779   0.33715   0.33715  61.22
    15203.48     1715.269   1983.8067   1088.5133   0.32585   0.32585  87.62
    11022.35     1277.161   1692.4899   1090.8908   0.20233   0.20233  89.88
    8319.164     987.7424   1107.9962   1094.4152   0.08800   0.08797 -90.00
    9572.465     1413.154   1413.4555   1100.2001   0.23022   0.23022   1.17
    22530.55     2106.203   1573.4849   1105.2986   0.24835   0.24835  87.64
    14001.02     1637.985   1917.0400   1105.4595   0.32847   0.32847 -89.65
    120547.8      2299.95   1966.1489   1116.4943   0.04189   0.04189  88.80
    10203.68     1289.042   1098.9911   1105.8988   0.24345   0.24345  50.85
    19998.27     1502.051   1871.5349   1121.1767   0.11348   0.11348  -5.71
    5508.648      1104.33   1201.1293   1110.4790   0.30844   0.30844 -78.88
     6610.02      1104.33   1319.8805   1117.6448   0.27522   0.27522   7.32
    243907.2     3041.922   1488.8538   1159.7009   0.03935   0.03935  -4.97
    11394.05     1047.659   1254.1303   1126.5173   0.19641   0.19641   1.84
    150526.5     2066.011   1125.2959   1158.6418   0.03238   0.03238  78.78
    28265.68     1595.556   1849.1967   1140.7855   0.08951   0.08951 -54.04
    6751.426     1240.836   1648.7845   1133.2164   0.37327   0.37327 -44.31
    73136.22     1754.807   1911.2115   1156.8231   0.04039   0.04039  34.68
    22298.71     1979.339   1712.0148   1153.5817   0.17753   0.17753 -14.58
    9478.785     898.8591   1587.3325   1146.6815   0.22558   0.22558 -46.32
    100123.6     2685.247   1814.5144   1174.8723   0.05946   0.05946  -1.64
    110448.8     2180.876   1875.5960   1171.3713   0.03886   0.03886 -26.33
    97527.04     2156.272   2020.1526   1180.7657   0.04722   0.04722  -2.04
    5117.664     828.2471   1861.0550   1158.5269   0.21136   0.21136 -89.36
     39797.1     1637.985   1354.1294   1174.2807   0.08596   0.08596  85.14
    22866.62     1600.326   2015.9600   1169.1063   0.11230   0.11230  14.21
    22648.14     771.0562   1463.9650   1165.0676   0.00766   0.00751 -82.09
    6151.844     873.0492   1908.2217   1163.9819   0.22107   0.22107  85.88
    74474.41     1784.953   1752.7148   1190.8847   0.04983   0.04983  87.66
    12301.09     1581.159   1837.5025   1169.5128   0.29590   0.29590 -16.68
    30775.23     1318.275   1968.3644   1177.3542   0.07795   0.07795 -52.11
     5916.07     1040.358   1979.4800   1169.2574   0.26362   0.26362 -10.67
    219398.5      2653.84   1986.8960   1202.6674   0.04597   0.04597 -84.09
    18336.05     1571.489   1896.3642   1185.4878   0.19545   0.19545  11.20
    715823.9     3331.343   1852.0590   1259.7220   0.00991   0.00991 -86.87
    22186.82     1551.966   1553.3151   1186.7708   0.10361   0.10361 -27.15
    11069.65     1527.212   1642.9900   1183.5756   0.33830   0.33830  -0.72
    4028.414     800.1628   1936.9543   1178.4444   0.29935   0.29935 -89.20
    69300.11     3317.587   1801.5921   1235.3065   0.17323   0.17323 -16.69
    12384.41     1637.985   1602.8976   1201.5720   0.22349   0.22349  88.65
     2272766     1706.359   1629.1311   1240.4648   0.00088   0.00088  89.74
    8363.906     1300.814   1895.3358   1200.9437   0.24487   0.24487   7.80
    6779.844     881.7365   1866.4522   1200.6772   0.19729   0.19729  87.78
    7452.992     1234.678   1440.4117   1199.6977   0.34992   0.34992  25.26
    5022.527     940.3027   1281.2470   1205.1919   0.31896   0.31896 -32.19
    71863.53     2051.201   2011.0690   1237.5517   0.08008   0.08008  89.83
    17172.34     1715.269   1054.1738   1223.6273   0.18187   0.18187  -5.12
    12733.23      1306.66   1992.7573   1219.7807   0.19308   0.19308 -50.35
    17444.57     1674.799   2003.9744   1233.9891   0.20498   0.20498  63.05
    9058.332     1445.154   1361.6469   1236.8469   0.31918   0.31918  89.18
     1282411     1517.198   1989.5956   1272.4793   0.00114   0.00114 -89.07
    22813.69     1369.324   1764.7290   1253.2052   0.09082   0.09082  11.52
    114776.8     2598.697   1555.6595   1274.7520   0.05084   0.05084 -33.96
    3982.531     846.4526   1972.2043   1246.8985   0.28047   0.28047  -3.94
    3802.449     538.1837   1327.9378   1252.0211   0.03195   0.03112   2.02
    497831.4     1789.218   1372.2558   1289.9660   0.00452   0.00452 -78.48
    8514.191     1380.412   1667.2032   1259.1679   0.39222   0.39222 -81.67
    90352.52     2326.312   1475.9992   1284.7272   0.05329   0.05329   4.39
    6698.824     1203.415   1809.2398   1265.3787   0.25906   0.25906 -85.53
    96508.41     1868.407   1352.8639   1290.9331   0.03872   0.03872 -89.39
    30597.84     1814.599   1974.4309   1285.4342   0.18180   0.18180 -47.54
    7486.555     1216.017   1610.4641   1278.0235   0.19960   0.19960   0.70
     4494.23     864.2746   1662.7384   1270.6635   0.27899   0.27899  86.88
    47266.05     1750.458   1298.8539   1297.0107   0.06662   0.06662 -82.93
    9014.496     1003.057   1731.2092   1281.4317   0.16473   0.16473  77.25
    180027.7     2807.365   1193.2605   1334.2435   0.04348   0.04348 -37.77
    33405.09     2225.847   1547.0980   1297.9821   0.16042   0.16042 -61.72
    13422.71     1892.725   1206.5053   1296.8356   0.39979   0.39979  89.27
    6607.043     604.8662   1110.9706   1291.0752   0.02293   0.02230 -83.40
    9211.613     881.7365   1044.1146   1296.0750   0.16014   0.16014  -9.48
     25860.1     2173.875   2030.2196   1306.9202   0.23564   0.23564 -41.76
    13067.67     1402.325   1702.8975   1310.1509   0.24134   0.24134  45.75
    8669.176     809.6325   1962.3666   1306.9853   0.10616   0.10616  -0.12
    67603.15     2084.376   1369.6489   1320.0903   0.08653   0.08653   1.21
    13527.18     1561.758   1566.5354   1311.5924   0.16938   0.16938  28.19
    23724.52     2276.634   1555.6553   1323.8029   0.28619   0.28619  86.76
    8740.543     1445.154   1621.0567   1312.8712   0.32630   0.32630  87.20
     65939.4     2316.461   1428.3636   1333.6533   0.07830   0.07830  35.58
     74835.8     2232.686   1633.6745   1335.3387   0.11590   0.11590 -73.87
    18315.81     2198.282   1572.5488   1326.1836   0.31212   0.31212  84.91
    7054.195     1246.964   1066.6293   1317.0895   0.32556   0.32556  87.12
    22608.17     1522.213   1577.1759   1331.9122   0.09972   0.09972  -2.80
    108966.3     2163.331   1533.8062   1360.5212   0.05644   0.05644 -85.14
    22797.01     2002.311   1183.4571   1339.1965   0.26298   0.26298 -87.65
    81036.53     2006.114   1777.1791   1362.8776   0.06455   0.06455 -76.82
    85668.91     1517.198   1054.2944   1352.4548   0.02537   0.02537  67.84
    3726.691     761.1066   1712.1833   1338.6092   0.22056   0.22055 -89.10
    9966.992     915.6617   1574.3801   1349.6346   0.16964   0.16964 -66.16
     70019.3     1512.166   1634.5157   1363.9410   0.03863   0.03863   0.42
    11928.06     1259.129   1254.3222   1352.7447   0.22624   0.22624 -22.63
    5564.609     641.5575   1404.1377   1351.1619   0.04407   0.04349  80.86
    7353.008     837.3994   1416.7787   1352.0987   0.20869   0.20869  -2.46
    21708.89     1806.178   1200.6747   1360.1709   0.15096   0.15096 -76.87
    248723.9      2009.91   1104.6864   1389.6600   0.01456   0.01456  47.55
    10428.02     1369.324   1661.5604   1357.3024   0.20162   0.20162   5.60
    28423.57     1294.941   1588.7891   1369.3236   0.08152   0.08152   7.28
    5071.965     538.1837   1346.8798   1355.0888   0.03666   0.03552 -14.99
    26973.95     2428.897   1196.4268   1367.3073   0.26814   0.26814 -17.98
    162251.2     1358.146   1472.2402   1386.6790   0.00989   0.00989  63.91
    24281.26     1746.098   1110.3017   1376.9881   0.12180   0.12180  88.88
    20002.21      2058.62    903.3309   1382.2438   0.31372   0.31372  27.41
    53725.76     2387.754   1380.1832   1417.4818   0.14094   0.14094   5.47
    3600.695     828.2471   1544.3956   1387.8836   0.22359   0.22356   0.03
     6138162     6932.912   1739.7404   1556.4769   0.00330   0.00330 -78.43
     5188.66      1062.11   1249.7930   1407.7965   0.34761   0.34761  49.80
    10401.11     1522.213    897.0425   1419.2414   0.23712   0.23712  47.19
    11983.56     1719.707   1572.4280   1423.8201   0.37896   0.37896 -85.01
    42081.48     2266.567    926.1722   1443.2203   0.14153   0.14153  83.63
    72552.12     1471.289   1636.7190   1447.9520   0.03179   0.03179  83.77
     3836366     9608.302   1157.9358   1691.7950   0.03175   0.03175 -12.75
    7922.992     1380.412   1171.1649   1442.3178   0.34704   0.34704 -56.08
    14888.28     1896.748    875.1112   1455.5726   0.31675   0.31675   3.38
    94440.17     2170.366   1263.9526   1481.7195   0.05648   0.05648   2.13
    6019.793     1090.438   1054.4162   1457.3106   0.29985   0.29985 -10.91
    25989.76     1683.876    754.1771   1468.3959   0.13361   0.13361 -84.00
    10614.53     1561.758   1586.4990   1460.1620   0.31476   0.31476  -0.88
    66332.16     3046.929   1698.8964   1486.9238   0.14681   0.14681 -50.98
    6343.211     1277.161   1662.8726   1463.6596   0.31830   0.31830 -26.51
    123123.8     1363.746   1183.7574   1481.2188   0.01455   0.01455 -51.10
    8173.004     1083.426    796.6238   1462.1097   0.39257   0.39257   0.39
    193910.4     2394.129    851.5299   1500.8978   0.02726   0.02726  -5.57
    5250.809     565.8005   1629.8807   1475.0604   0.07302   0.07270  -0.33
    8244.703     1352.522    920.1424   1481.0633   0.34742   0.34742 -61.74
    31773.23      2299.95   1788.5991   1489.4095   0.19854   0.19854 -61.00
      571269     2945.166   1382.4758   1532.4317   0.01261   0.01261  65.26
    3787.203     698.4393   1313.7943   1484.9827   0.05859   0.05108   0.57
    6673.121     664.8944   1885.7123   1487.0604   0.04404   0.03951  -0.52
    7660.676      1111.21   1912.9026   1492.0492   0.21386   0.21386  15.95
    69658.27     3351.872   1573.0272   1534.7577   0.15703   0.15703  -0.50
    3648.406     864.2746    749.8216   1490.0490   0.26505   0.26505   0.08
    21894.61     2180.876   1647.8988   1516.2021   0.16168   0.11409 -89.67
    20922.42     1952.197   1990.3845   1504.3269   0.20779   0.20779  20.41
    8555.301     1369.324   1488.3865   1503.0153   0.27344   0.27344 -89.77
    15449.95      1710.82   1581.8893   1508.6159   0.28361   0.28361   0.80
    36839.21     1827.156    786.2166   1523.8408   0.18232   0.18232 -10.68
    7102.914     709.2685   1577.7619   1512.4948   0.06745   0.06717  89.99
    8980.469     1466.099   1325.2522   1512.7687   0.36298   0.36298  80.02
    3679.469     565.8005    680.9900   1519.0135   0.03426   0.03422 -54.90
    18466.62     1763.473   1686.4198   1528.6752   0.20573   0.20573 -63.35
    4623.461     915.6617   1238.2343   1525.2680   0.34338   0.34338 -54.57
    6215.359     890.3389   1568.9825   1525.7950   0.10693   0.10686  89.97
    21940.81     2120.629    939.9661   1544.7844   0.22174   0.22174  89.96
    10054.98     1542.112    902.4916   1545.4640   0.33800   0.33800 -22.13
    19271.58     1912.755    761.9653   1551.6443   0.21627   0.21627  89.33
    11267.94     915.6617   1223.8490   1547.1208   0.12297   0.12297 -50.68
    78830.67     1561.758    764.7481   1570.5979   0.03306   0.03306  78.92
    5448.285     1083.426   1615.8857   1567.1990   0.27223   0.27223 -18.01
    50836.15     2349.135   1508.4263   1596.8211   0.13761   0.13761   0.01
    183551.8     3643.869    893.4727   1611.6346   0.08336   0.08336  86.59
    8700.902     1277.161    859.7980   1578.1421   0.27029   0.27029  63.76
    91234.85     1864.323   1611.7004   1610.3883   0.03647   0.03647  81.11
    83273.76     2400.488   1715.7075   1610.0796   0.05922   0.05922 -44.33
       19209     2040.023   1806.5480   1590.7744   0.48031   0.48031   0.11
    314612.7     3526.946    880.5361   1635.2800   0.02915   0.02915  -3.30
    168904.7     2780.083   1629.0265   1617.1709   0.04012   0.04012 -12.43
      127068     1517.198    766.8965   1611.3329   0.01864   0.01864   6.55
    40397.75     2397.311    831.0100   1600.9114   0.15043   0.15043 -10.47
    38879.93      2017.48   1972.1467   1609.4680   0.11743   0.11743  -0.53
    15465.28      1822.98   1475.1159   1600.3312   0.44692   0.44691  -0.03
    19042.82     1789.218   1691.5141   1613.0199   0.16957   0.16957  89.37
    14417.27     1450.418   1085.6743   1611.4796   0.22029   0.22029  -1.17
    5037.234     995.4292   1581.9423   1605.1504   0.24737   0.24737 -80.83
    10831.76      1407.75    591.3295   1613.9876   0.26887   0.26887  87.10
     8555.07     1507.117   1357.5447   1618.8728   0.30053   0.30053   5.51
    65918.18     2727.493   1762.4861   1645.6632   0.13373   0.13373  -6.04
    7416.863     1374.879   1752.1905   1622.9367   0.27623   0.27623  76.19
    43367.55     1656.494   1000.4386   1639.4526   0.08841   0.08841  69.25
    77942.58     2780.083    891.5191   1648.0282   0.10686   0.10686   0.17
    15817.18     1633.325   1777.9668   1639.3289   0.21463   0.21463 -89.07
    18366.82     1715.269    730.1289   1642.8652   0.25701   0.25701  10.31
     61673.7     2521.284   1243.4505   1662.1094   0.13640   0.13640 -87.75
     8702842     2908.708    560.2249   1714.9317   0.00067   0.00067  -3.33
    67191.89     1312.481   1487.5329   1649.1362   0.02112   0.02112  89.09
    20401.93     1124.845   1740.7862   1641.4371   0.05369   0.05369 -88.45
    18063.27     1083.426    559.5278   1648.6489   0.12843   0.03874 -29.49
    10763.46     1003.057    953.8672   1645.5525   0.14406   0.14406 -85.16
    20126.13     1880.605   1275.3394   1651.4842   0.21668   0.21668 -17.47
    95370.39      1822.98   1002.5460   1662.7259   0.04409   0.04409   1.82
    63498.52     2536.354   1068.3551   1665.2817   0.10701   0.10701   1.72
    24914.09     1963.875   1928.5758   1655.0139   0.17785   0.17785 -88.41
    168731.5      2299.95   1076.7091   1675.9895   0.02893   0.02893  33.95
    90989.69     2102.581    740.1242   1670.4387   0.06640   0.06640  83.52
    14415.79     1952.197   1191.0806   1657.1302   0.30212   0.30212 -29.14
       33720     1197.065   1468.9934   1663.1011   0.04505   0.04505 -24.57
    38438.85     2932.198    617.9607   1674.9324   0.28929   0.28929  73.96
    5806.613     1018.142   1627.1550   1653.8165   0.28425   0.28425 -42.77
    22460.02     2145.642   1989.0422   1665.9949   0.34006   0.34006 -75.46
     69758.3      2374.95   1658.5739   1685.3242   0.10192   0.10192  76.47
    12244.43     1547.047   1660.4102   1665.8480   0.26377   0.26377 -87.23
    24885.78      1860.23   1988.9014   1675.0323   0.15380   0.15380  45.92
    25993.83     2339.381   1298.7657   1673.0830   0.33727   0.33727  -8.18
    56876.85     1847.897   1742.2872   1689.4496   0.05399   0.05399   3.09
      190342     2610.402   1030.6362   1720.5896   0.03138   0.03138  66.64
    5829.023     565.8005    822.0225   1675.9658   0.02270   0.02255 -72.08
    12557.91     1566.631   1631.6307   1683.5446   0.23219   0.23219   1.38
     7250.91      1104.33   1906.5365   1682.6275   0.21750   0.21750 -20.50
    11378.85     1566.631    824.1072   1687.7028   0.23303   0.23303  87.69
    9967.945     873.0492   1000.6239   1694.5656   0.12456   0.12456  89.65
    14259.35     1144.993   1240.4104   1689.9597   0.12979   0.12979  89.28
     12980.6     932.1614   1005.0436   1702.0670   0.13575   0.04569  61.78
    4317.176       855.41    693.7445   1691.9727   0.29233   0.29233 -84.82
    10569.85     1018.142   1376.1424   1697.8556   0.19176   0.19176 -72.00
    16285.38     1312.481   1518.6462   1705.2929   0.13495   0.13495 -30.09
    14160.13     890.3389   1008.8869   1708.6572   0.05888   0.05887 -89.74
    10508.57     1561.758   1792.5104   1711.2396   0.37773   0.37773  86.10
    9010.414     1209.732   1919.6650   1709.1957   0.45864   0.45864 -66.44
    26298.23     1537.162   1635.7106   1727.4731   0.22381   0.22381  22.48
    4614.324     987.7424    946.7791   1713.3818   0.33757   0.33756  83.23
    39355.77     2180.876   1133.6473   1735.8565   0.13379   0.13379  87.69
    5434.863     1083.426    927.7745   1715.8050   0.25175   0.25175 -85.99
    9311.207     1003.057   1670.1990   1719.4673   0.12669   0.12669  86.95
    47825.61     2760.824   1053.8485   1742.9512   0.22523   0.22523 -19.26
    14904.29     828.2471   1034.9644   1728.9099   0.01771   0.01745  88.32
    5439.629     565.8005   1361.9622   1727.0575   0.02760   0.02719 -70.98
    30887.44     2387.754   1479.7562   1748.0240   0.17508   0.17508 -10.88
    35969.41     2276.634   1316.3581   1745.6047   0.16355   0.16355 -62.44
    103535.5     1814.599   1351.2594   1757.1232   0.03350   0.03350  -0.59
    12653.23     1527.212   1539.3374   1740.1789   0.17198   0.17198   4.70
      223712      1306.66   1819.3275   1762.7511   0.00580   0.00580  51.13
    6157.484     1209.732   1570.2036   1744.6884   0.34116   0.34116 -70.36
    3610.695     538.1837   1513.0956   1746.1200   0.12474   0.09865 -44.91
    51522.55     2960.654   1259.3709   1763.1205   0.22089   0.22089  87.36
    6011.582     687.4396    601.9708   1752.8192   0.09961   0.06155 -89.79
    9690.719     1385.923   1132.1710   1757.2601   0.32287   0.32287 -56.09
    14357.39     1083.426   1841.7162   1759.5746   0.07945   0.07945  83.15
    15072.76     1876.548    831.4351   1761.4760   0.35311   0.35311   7.61
    10079.88     1491.867   1790.2322   1761.6350   0.27697   0.27697 -82.02
    11726.61      1439.87   1269.8714   1759.4355   0.43933   0.43933  -1.62
    29222.78     2326.312   1353.9842   1779.5330   0.24503   0.24503   0.71
    19728.34     1369.324   1322.1927   1770.9575   0.12767   0.12767 -79.11
    17471.79     1872.482    683.3140   1778.4934   0.25600   0.25600 -64.67
    5169.062     629.5647   1864.0111   1769.6298   0.07113   0.06618 -89.98
    149499.9     2842.442   1888.1652   1799.6771   0.06671   0.06671 -82.46
    203899.8     1547.047    809.1675   1789.6236   0.01118   0.01118 -12.98
    7349.352     1177.808   1496.5452   1775.3258   0.33772   0.33772  88.50
    11864.08     1585.973   1897.2786   1781.9192   0.22200   0.22200  -4.79
       30424     2710.674   1290.8143   1795.2808   0.31064   0.31064   6.35
    16836.56     2032.536   1438.1498   1791.3451   0.32878   0.32878   3.59
    66177.08     1831.323   1979.5811   1801.3776   0.06931   0.06931 -80.15
    71566.16     3056.919   1827.3825   1807.1961   0.12278   0.12278   1.42
    7141.625     1283.115   1117.5721   1787.8659   0.36999   0.36999   2.91
    5742.793     1047.659   1830.3687   1786.0113   0.25481   0.25481  20.62
    16530.69     1471.289   1847.8420   1803.2404   0.22848   0.22848  21.82
    4847.684     987.7424   1606.6163   1797.7690   0.35723   0.35723  81.77
     1052757     1522.213   1442.9455   1832.8983   0.00147   0.00147  52.66
    35102.13     2500.032   1025.6067   1813.7904   0.20066   0.20066  -1.55
     63220.1     3439.415   1047.1206   1817.6666   0.22031   0.22031   0.45
    13457.99     1651.887   1892.3743   1810.9863   0.26078   0.26078   1.99
    18809.37     1283.115    477.9090   1818.8918   0.15526   0.15526  43.66
    64916.03     2563.258   1802.0247   1827.6711   0.11262   0.11262  -1.57
    9202.723     1481.614   1340.3950   1815.3038   0.36346   0.36346 -12.19
    5399.332     1171.318    770.7202   1818.9927   0.30637   0.30637  84.55
    10216.52     1542.112   1440.4248   1821.6379   0.28474   0.28474  35.65
    55874.53     2198.282    427.9845   1840.6213   0.10376   0.10376 -88.21
       19826     2163.331    919.8996   1829.1961   0.38444   0.38444 -11.18
    6707.836     1171.318   1561.2674   1829.3277   0.37180   0.37180  65.73
    50924.12     2239.503   1041.6734   1845.9652   0.13239   0.13239  51.46
    41731.36     1692.905   1138.2188   1850.5727   0.11646   0.11646  85.00
     46104.3     1810.393   1078.0399   1847.6395   0.07497   0.07497  89.48
     41362.6     1561.758   1917.4023   1853.3720   0.06088   0.06088 -16.76
    17891.61     1647.266   2016.2517   1861.7591   0.18199   0.18199  41.28
    12378.56      1767.79    426.6380   1856.6156   0.33249   0.33249  59.21
    12099.29     1346.875   1431.7560   1858.8231   0.17488   0.17488 -24.45
    51248.06     1614.551    484.2822   1872.4898   0.07812   0.07812 -88.89
    111079.8     2339.381    616.4598   1883.3808   0.05437   0.05437  10.66
    7825.266     641.5575   1293.1087   1860.2428   0.02974   0.02710  87.78
    20504.96     1971.623   1190.9508   1866.8932   0.22114   0.22114 -29.14
    47528.92     2699.403   1720.4898   1879.3324   0.21925   0.21925 -21.93
    7512.668     1138.317    735.2227   1864.9130   0.38331   0.38331 -70.81
    25310.55     2069.698   1718.2316   1882.0718   0.14712   0.14712  85.11
    32596.93     1324.045   1967.3406   1895.6328   0.06269   0.06269  51.90
     12364.5      1407.75   1249.3962   1891.8630   0.27630   0.27630  -8.66
    9389.176     1460.891   1690.0077   1888.3840   0.30015   0.30015  88.93
    37818.35     2662.442    843.8070   1905.2872   0.23493   0.23493  86.65
     10880.1     1754.807    480.6746   1904.8833   0.30904   0.30904   2.70
    5650.145     1033.006   1469.4823   1897.2450   0.40243   0.40243  89.37
    63579.96     1692.905   1595.5265   1978.7740   0.03645   0.03645  -0.04
    31013.88     2273.283   1135.6547   1927.8375   0.29284   0.29284  -3.81
    25442.58     780.8789   1234.3042   1905.3320   0.01571   0.01567  89.06
    11826.11     1471.289   2023.3098   1908.0743   0.22397   0.22397  81.11
    18932.07     1614.551   1589.2413   1908.0215   0.16752   0.16752  81.44
    9472.391     890.3389   1492.7569   1913.4079   0.16030   0.16030  79.65
    4259.961     664.8944   1665.8909   1913.3853   0.23034   0.23034  88.10
    9934.277     1352.522   2021.2567   1914.3819   0.22898   0.22898  -5.91
    20762.35     1047.659   1724.7504   1923.9353   0.06019   0.06019 -72.94
    18300.11     1797.718   1761.8693   1924.4220   0.17859   0.17859  87.34
    15688.29     1916.736   1798.8061   1939.1911   0.32428   0.32428  54.34
    31551.79      1767.79   1113.3045   1947.3713   0.14121   0.14121 -37.64
    34086.23     1537.162   1367.5783   1944.3911   0.08783   0.08783 -63.57
    18175.25     1561.758   1208.5049   1938.4047   0.13930   0.13930 -84.50
    59674.25     1971.623    353.0370   1951.9850   0.09456   0.04995 -58.52
    85003.27     2557.304   1866.8766   1965.3420   0.08617   0.08617  40.57
    19939.59     1512.166    960.1237   1953.5065   0.13957   0.13957 -87.78
    14144.52     809.6325    784.0901   1953.0351   0.04041   0.04041   0.14
    33299.65     2381.361   1815.4459   1971.9648   0.18790   0.18790 -18.45
    14124.07     1759.145   1501.2654   1957.4836   0.26020   0.26020  32.62
    9533.633     1512.166    439.8829   1950.8103   0.37546   0.37546 -19.36
     7215.02      1111.21    387.8691   1951.7901   0.30180   0.30180  65.04
    6296.621     1184.261   1691.6448   1956.3321   0.27903   0.27903 -59.56
    23650.57     1391.411   1671.6683   1964.8448   0.10107   0.10107 -81.43
    33186.21     1228.489   1758.9183   1970.3029   0.03744   0.03744  15.32
    7964.629     1346.875    415.1741   1965.7580   0.37564   0.37564  55.89
    11984.54     1856.128    565.5123   1969.4621   0.36352   0.36352  76.29
    14430.94     1750.458   1678.1350   1978.3377   0.27322   0.27322 -10.64
    37566.04     2036.283   1308.7909   1979.2909   0.14496   0.14496 -16.94
    8451.395     1358.146   1333.6468   1979.1580   0.34875   0.34875   4.68
    104518.3     2432.033   1937.3444   2023.6360   0.09923   0.09923  58.82
    17064.96     1679.344    988.3125   1990.2206   0.29402   0.29402 -11.81
    62222.56     2293.312   1255.4184   2008.1017   0.10117   0.10117 -86.76
     25812.1     2607.481    541.7195   1995.6246   0.36128   0.36128  89.10
    16385.18     1228.489   1737.1217   1995.7399   0.11422   0.11422  -3.47
    51750.36     1481.614   1756.8461   2008.1717   0.04377   0.04377 -20.53
    99401.07     1527.212   1511.8109   2008.1934   0.02222   0.02222 -48.49
    15627.32      1062.11   1990.0415   1998.0368   0.13347   0.13347 -72.67
    30476.57     2152.735    870.6026   2012.2927   0.15763   0.15763  -1.43
      569920     5342.034   1040.1147   2107.9975   0.05671   0.05671  19.63
    6952.078     1151.631   1593.2620   1999.7167   0.28273   0.28273  53.43
     24113.5     2323.033   1591.3769   2008.3137   0.36895   0.36895  73.02
    15787.22     1507.117   1696.2570   2008.7165   0.21295   0.21295  47.73
    20565.64     2180.876   1571.9982   2012.4698   0.34679   0.34679 -89.23
    47150.11      2077.05   1943.4737   2016.8977   0.09981   0.09981  88.87
    10823.91     1547.047    991.8981   2004.8681   0.32841   0.32841  31.81
    9428.387     1184.261    918.4627   2008.7315   0.25583   0.25583  89.33
    22489.32     1880.605    539.5654   2020.5800   0.22020   0.22020  21.48
    16203.62     1380.412    674.8804   2021.3563   0.23538   0.23538   2.49
    867337.8     8973.314   1608.6311   2121.8853   0.13028   0.13028  86.88
     52987.9     3212.536   1034.3775   2022.2339   0.28749   0.28749  23.84
    69210.91     2435.166    525.3784   2044.8937   0.10407   0.10407 -88.03
    26171.79     2062.319   1655.1713   2032.6937   0.21208   0.21208   2.28
    25168.15     2191.336   1256.7748   2037.3031   0.21555   0.21555   7.85
    6810.906     1197.065    467.9175   2022.2233   0.39051   0.39051   5.44
     9202.52     1324.045    561.4212   2022.9075   0.46293   0.46293  87.29
     4405806     2152.735   1453.6407   2089.9203   0.00084   0.00084 -88.28
    12473.02     1329.789   1886.8063   2036.4852   0.17902   0.17902 -85.62
    95286.45     1679.344   1520.4906   2055.7159   0.03375   0.03375   2.04
    7290.094     940.3027   1242.8134   2038.7333   0.10363   0.10362  88.98
    36789.72     1312.481   1741.7516   2050.0815   0.05608   0.05608  21.57
    40520.55     2503.079   1644.6518   2048.9697   0.18795   0.18795  81.96
    3696.602     864.2746   1275.7050   2038.6038   0.28590   0.28590  89.54
    10324.64      1306.66    398.3226   2042.9161   0.40744   0.40744 -48.30
    69580.98     2349.135   1493.8191   2059.9547   0.08048   0.08048 -74.30
    8039.855     1460.891    605.8941   2056.4213   0.37854   0.37854  85.68
    16141.43     1967.753    374.6630   2059.5284   0.44188   0.44188 -57.07
    6449.164     846.4526   1859.3298   2061.5131   0.27785   0.27785  -2.72
    11318.87     1413.154   1658.4216   2065.4355   0.20506   0.20506  51.26
1.104201e+07      3226.74   1106.0732   2176.5818   0.00083   0.00083 -89.27
    9882.465     1537.162    947.7411   2068.3871   0.30541   0.30541  41.46
    112994.3      1476.46    755.5992   2089.8271   0.02003   0.02003  63.97
    7741.363     864.2746    711.0147   2077.9902   0.30374   0.30374 -61.45
    22789.96     956.3774   1836.0096   2085.7949   0.02125   0.02113 -90.00
    15238.83     1948.289    489.3289   2084.8845   0.26937   0.26937  44.69
    6392.496     1033.006   1356.6751   2074.9172   0.37343   0.37343  79.38
    8595.176     1271.179   1711.3431   2081.8040   0.23639   0.23639  11.29
    9168.414     1517.198    600.3304   2077.1456   0.34123   0.34123 -38.24
    5969.414     709.2685   1842.6869   2080.4099   0.07856   0.07826 -89.89
    16291.94     1952.197   1425.4539   2084.7392   0.34416   0.34416 -89.27
     50690.8     2163.331   1793.6925   2106.7787   0.09550   0.09550  20.14
    9062.809     915.6617   1156.1258   2092.8968   0.17166   0.05928  62.27
    9644.016       855.41   1830.5017   2090.4858   0.14165   0.14165 -32.07
    52477.27     2390.944    419.4791   2100.7257   0.09570   0.09570   4.37
    14681.91     1605.081   1014.7383   2094.0660   0.26426   0.26426 -11.36
    11867.11     1679.344   1814.2899   2090.5844   0.36123   0.36123 -84.68
    75732.06     3231.461    345.8200   2113.8983   0.21506   0.21506  39.46
    13823.36     1576.331   1541.7307   2100.9182   0.23302   0.23302 -20.33
    15599.08     1928.629    964.8431   2107.9679   0.28805   0.28805 -86.54
    190512.5     3516.124    451.7232   2133.7962   0.05697   0.05697 -14.85
    37747.86     1369.324   1773.9727   2114.8995   0.06786   0.06786  33.34
    7338.414     1265.168    832.9442   2102.4104   0.36287   0.36287 -85.42
    10742.21     932.1614   1924.1659   2113.0213   0.14550   0.14550  -5.01
    5569.684     687.4396   1919.9993   2107.7086   0.09833   0.09804 -90.00
    12529.27     1329.789   1146.8252   2108.6880   0.25969   0.25969  12.05
    13472.18     1679.344    649.0607   2109.4046   0.42933   0.42933   4.87
    13196.84     1732.953    810.9499   2107.3194   0.43589   0.43589 -82.53
    129944.9     4420.768   1594.1702   2132.8699   0.23740   0.23740 -84.11
     12492.4     1240.836   1196.9882   2121.9871   0.20304   0.20304 -15.51
    105867.1     2138.525   1161.0709   2135.5458   0.03649   0.03649   0.31
     11365.8     1246.964   1676.8830   2126.5397   0.22194   0.22194  57.47
    17371.55     2028.783   1398.6498   2128.2458   0.34472   0.34472  70.04
    8204.051     1234.678   1108.7636   2119.5946   0.51508   0.51507  -0.23
    19350.28     2098.953    691.4074   2137.7442   0.29913   0.29913  81.37
    4207.395     972.1864    575.4396   2134.7461   0.31722   0.31722  89.49
    10153.35     1656.494   1983.7210   2137.5830   0.32734   0.32734 -77.60
    11544.96     948.3741   1652.7092   2141.3240   0.13344   0.13344  70.95
    5867.555     898.8591   1553.7714   2139.7631   0.19659   0.19659  46.67
    14374.52       1423.9    299.5597   2150.4179   0.23913   0.23913   8.07
    31611.31     1956.098    508.0885   2161.2224   0.18920   0.18920  13.04
    9453.723     1385.923   1183.2233   2147.2986   0.32529   0.32529  12.03
    74322.62     2113.428    467.1663   2167.0459   0.05605   0.05605   9.34
    18494.62     1780.678   1901.7748   2160.1974   0.20659   0.20659  68.72
    73425.77      2124.22   1178.7918   2177.9702   0.08447   0.08447 -84.65
     9740.41     1289.042   1504.8241   2159.0963   0.22399   0.22399  -4.89
    14983.67     1692.905   1638.1783   2162.3571   0.25761   0.25761  28.25
    6769.133     1184.261   1568.5484   2165.5259   0.22123   0.22123  89.89
    5564.703     1069.262   1279.1912   2159.7308   0.35225   0.35225 -86.56
    14845.77     1144.993   1747.6595   2169.3934   0.12203   0.12203 -55.53
    201035.7     1642.632    656.3346   2187.7029   0.01265   0.01265 -86.00
    23737.92     1623.965    443.6312   2176.1398   0.13741   0.13741   4.63
    7290.438     1131.601    693.8164   2165.0006   0.41422   0.41422   2.36
    190316.2     1300.814   1742.2729   2186.1876   0.00691   0.00691 -71.00
    15251.69     1216.017   1302.8968   2173.2223   0.09674   0.09674 -27.12
    42732.25     2329.586    458.5083   2178.5494   0.11508   0.11508  -2.40
    106098.3     2236.097   1633.4574   2192.0887   0.05055   0.05055  89.09
     17368.1     1719.707   1462.7516   2178.6362   0.21917   0.21917  13.23
    236716.4     1697.402    439.7123   2197.0969   0.01215   0.01215  74.76
    30760.56     2419.465   1701.8724   2196.5134   0.22894   0.22894 -11.93
    11630.67     1623.965   1923.4479   2178.8399   0.38004   0.38004 -89.07
    12939.25     1651.887    816.6665   2186.9403   0.28339   0.28339 -88.02
    48565.28     2968.367    820.0714   2205.4083   0.22630   0.22629   0.74
      119390     5188.586    907.5053   2227.2018   0.35568   0.35568  -0.28
     14422.6     1990.858    225.1409   2196.2460   0.44006   0.44006 -14.32
     4280.27     873.0492    581.5087   2192.8642   0.31388   0.31388 -87.42
    15868.71     1246.964    454.8972   2204.4266   0.15434   0.15434   5.19
    12113.45     1491.867   1595.2556   2205.3775   0.26821   0.26821 -81.25
    9999.258     1517.198    871.4870   2198.1020   0.39354   0.39354  -1.67
    33728.19     2752.529   1101.9431   2209.3497   0.43808   0.43808   3.01
    89809.47     2384.559    470.9659   2223.2624   0.05757   0.05757  87.54
    184779.1     2509.162   1597.5137   2238.8003   0.02889   0.02889  -9.11
    9970.258     1496.968    614.0553   2205.1550   0.50251   0.50251 -75.68
    60486.57     1916.736   1358.9747   2221.8975   0.05202   0.05202  14.66
    4094.375     523.8295    654.9961   2206.1083   0.03122   0.02904  88.18
    62771.85     2478.599   1298.9890   2227.0491   0.11071   0.11071  88.99
     55892.6     2102.581   1292.3011   2231.2943   0.06194   0.06194 -46.97
    45851.52     1271.179   1068.4798   2226.4704   0.03973   0.03973 -48.31
    10629.36     1450.418   1956.6320   2239.5102   0.20709   0.20709  86.41
    41166.29     1561.758    333.8929   2227.6642   0.08284   0.08284 -87.97
    6004.465     1118.048    972.8984   2217.2014   0.30833   0.30833 -22.11
     3052741     16570.46    618.8597   2744.4412   0.12583   0.12583   5.83
    8490.805     1352.522    950.2636   2219.0912   0.32632   0.32632  24.07
    23399.85     1831.323   1527.5307   2229.8870   0.18562   0.18562   7.22
    9281.059     1413.154    793.5637   2227.7891   0.28942   0.28942   2.98
     10208.3     751.0253    329.1631   2229.9775   0.05817   0.05814  -0.05
    15569.91     1750.458    255.7317   2232.9234   0.27175   0.27175   5.50
     47176.8     1335.508   1547.2924   2247.2889   0.03879   0.03879  45.98
    8289.887     987.7424   1883.3463   2254.1286   0.19989   0.19989  -8.40
    19682.56     1872.482    903.3429   2260.3021   0.19484   0.19484  85.43
    45958.36     2032.536   1630.6007   2270.8032   0.15320   0.15320  -3.46
    8432.203     1517.198    813.3023   2253.7949   0.34144   0.34144 -83.86
    5191.023     932.1614   1289.0465   2258.3706   0.28210   0.28210  83.89
    11275.51      1439.87    202.8130   2270.8041   0.27359   0.27359 -35.01
    13922.15     1674.799   1083.4203   2271.4578   0.20930   0.20930 -42.97
    9331.766     1396.879   1363.6724   2271.8092   0.28796   0.28796  32.79
    13877.93     1793.473   1096.3340   2273.2642   0.35260   0.35260  61.72
    14458.05     940.3027   1585.2032   2273.7545   0.08700   0.08700  47.01
    39934.41     2080.716   1368.6363   2287.1507   0.12866   0.12866   9.02
    14869.26     1402.325   1829.2873   2284.3318   0.12973   0.12973 -30.19
    3792.973     751.0253   1527.9087   2275.7474   0.29901   0.29901  82.81
     16836.5     2187.855   1037.8510   2294.1556   0.35268   0.35268 -25.57
    23480.05     1144.993   1385.0097   2295.4268   0.06657   0.06657  89.83
     19180.8     2205.205    931.0430   2295.3258   0.37244   0.37244  82.41
    8723.137     1369.324    793.2343   2298.9386   0.27853   0.27853  76.38
    9936.352     1346.875   1544.6707   2304.3624   0.15550   0.15550  65.02
    5798.895     1312.481    836.2591   2300.4503   0.33593   0.33593  88.79
    5033.016     987.7424   1084.4607   2298.2276   0.36298   0.36298  87.49
    22638.02     1234.678    944.3041   2313.0644   0.09357   0.09357  -0.58
    119356.1     2441.418   1950.6174   2328.3942   0.06442   0.06442 -44.08
     23612.8     1880.605   1931.9035   2313.2107   0.18749   0.18749  16.43
     13883.4     1737.346   1323.8793   2312.3937   0.23776   0.23776  86.23
    7735.145     1289.042   1421.4856   2316.2864   0.30800   0.30800  88.99
    35621.01      1959.99   1458.1108   2325.8165   0.09157   0.09157 -28.06
    10384.25     1158.231   1720.5734   2323.8866   0.14376   0.14376   1.34
    3928.387     818.9927   1694.7092   2316.4234   0.27681   0.27681 -85.08
     2251768     1697.402   2004.4182   2363.5177   0.00091   0.00091  -4.27
    14275.96     1888.694    616.5520   2323.2905   0.31701   0.31701  89.04
    261504.8     1391.411   1383.0200   2346.7683   0.00570   0.00570  -6.43
    10833.13     1614.551   1348.2611   2323.9538   0.39624   0.39624   7.99
    9167.562     1460.891   1495.8862   2330.9517   0.30055   0.30055  -1.56
    62452.98      2766.34    649.3610   2363.8109   0.18247   0.18247  -5.73
    32365.21     2601.628   1053.1941   2357.1687   0.24897   0.24897  15.99
    4044.523     818.9927   1597.1775   2334.7420   0.29851   0.29851  22.90
     97171.4     2032.536   2032.4123   2358.3756   0.03545   0.03545 -14.85
    39160.13     1628.652    592.8036   2359.6373   0.10239   0.10239  85.53
    18942.04     1346.875    938.4935   2349.1787   0.10400   0.10400  -0.14
    23145.53     2242.904   1067.1082   2351.3009   0.30241   0.30241 -86.32
    7431.996     1203.415    341.3683   2343.9064   0.38325   0.38325 -89.95
    47500.23     2696.577    993.0836   2378.3953   0.21982   0.21982  87.88
     3978.02     964.3143    801.5897   2347.5852   0.31446   0.31446 -44.29
    53730.08     2771.845   1791.1827   2372.3678   0.15806   0.15806  -0.96
    7918.883     1234.678   1874.7298   2356.5332   0.24966   0.24966 -69.78
    6899.367     1124.845    826.3576   2359.5408   0.26972   0.26972  80.85
    14391.71      1959.99    421.2957   2367.7293   0.32861   0.32861  29.51
    12553.85     1642.632    436.7037   2364.0955   0.27690   0.27690   1.16
    22820.05     1896.748   1391.4177   2372.3263   0.18958   0.18958   3.38
    5299.734     1083.426   1127.3397   2366.7567   0.30450   0.30450  24.22
    17278.96      2009.91   1153.6949   2379.2256   0.36108   0.36108  72.55
     47449.6     2025.022    497.4742   2386.2448   0.11102   0.11102 -10.63
    30487.05     2040.023   1053.7172   2383.9819   0.14023   0.14023   0.36
    10968.43     1040.358   1871.6288   2381.9355   0.13000   0.13000  77.70
    35862.71     1880.605   1659.1260   2399.0235   0.13953   0.13953  -2.29
     8857.43     751.0253   1502.2791   2384.9843   0.04431   0.04317  -0.02
    32116.09     1990.858    484.5406   2399.4654   0.12465   0.12465 -89.35
    24863.42      2058.62    323.2629   2398.8145   0.18887   0.18887 -71.70
    2562.199     478.1887   1938.1725   2399.1085   0.12271   0.09080  45.35
    18679.23     1661.089    238.3752   2408.6263   0.21604   0.21604 -37.85
    8672.875     873.0492   1202.5798   2409.1571   0.23265   0.23265  -2.85
    8474.207     995.4292   1859.5890   2409.4379   0.28783   0.28783  26.48
    7682.227     1312.481   1319.5803   2414.3774   0.35322   0.35322  42.71
    2873.477     592.1307   1072.5639   2410.0708   0.27075   0.27072  -0.10
      183088     1576.331    632.6710   2432.8868   0.01347   0.01347 -84.98
    38715.25     1797.718    347.4116   2422.5198   0.08304   0.08304  81.75
    15733.81     1512.166    946.7744   2421.5671   0.18663   0.18663 -66.22
      210248     2453.874    334.7787   2455.6702   0.02974   0.02974  79.41
    3785.121     538.1837   1300.8934   2415.9248   0.09586   0.07594 -45.22
    39993.99     1609.823   1518.5894   2430.2569   0.05964   0.05964  77.89
    87770.74     2051.201    577.3657   2440.8023   0.04848   0.04848  -9.93
    13036.43     1445.154   1218.9135   2430.1953   0.14454   0.14454  22.73
    12435.11     907.2993   1670.3332   2434.4413   0.12048   0.12048  74.73
    67016.23     1998.501   1336.5588   2450.9571   0.05269   0.05269   0.08
    7566.438     698.4393   1349.2687   2433.2782   0.06303   0.06300  88.06
    55097.67     1932.577   1150.4646   2457.6851   0.09428   0.09428 -14.15
    36883.45     2371.739   1056.3956   2446.6307   0.15624   0.15624 -46.98
    33595.39      2653.84    511.7718   2450.1773   0.24015   0.24015  72.10
    24850.55     1741.728    948.0303   2449.8603   0.23077   0.23077 -30.69
    15135.23     1772.096   1151.3564   2442.3569   0.26501   0.26501   3.99
    39722.36     1674.799    496.3384   2454.8509   0.10339   0.10339  -4.58
    19294.55     2259.832    115.5576   2443.6679   0.37795   0.37795  48.96
    14845.78     1341.204   1989.0023   2449.9454   0.15340   0.15340  84.69
    8052.273     1312.481   1819.8857   2447.4361   0.31964   0.31964 -10.32
    70120.27     1884.654    658.3351   2462.1346   0.04899   0.04899  -2.40
    9164.352     1429.243   1315.4545   2451.2027   0.32078   0.32078  -7.78
    6620.766     1047.659    846.8609   2450.6991   0.40411   0.40411 -48.49
    173610.4     1369.324   1259.3137   2475.8728   0.00905   0.00905  -0.25
    9767.328      1306.66    891.4109   2471.0374   0.25083   0.25083 -87.47
    123066.7     1585.973    741.1582   2487.7177   0.01868   0.01868   0.99
     1254760     1741.728    673.8333   2503.4217   0.00196   0.00196   5.59
    7213.137     1144.993   1811.6742   2470.0435   0.27167   0.27167  89.72
    192686.7      1710.82   1996.0675   2497.3060   0.01006   0.01006   0.18
    10010.32      1306.66    915.1937   2477.3687   0.25854   0.25854  85.02
    243751.4     1637.985    544.6038   2497.1932   0.01080   0.01080  -7.89
    53001.81     2478.599    105.2687   2488.8562   0.11464   0.11464  -6.07
       38517     2403.661    414.8965   2494.8847   0.24704   0.24704  71.07
    4375.164      617.339   1923.8728   2477.5522   0.25226   0.25226 -89.79
     3366025     5793.785   2028.1757   2611.9629   0.01227   0.01224 -90.00
    11758.33     1697.402    690.1135   2478.1642   0.28128   0.28128  28.62
    11410.11     1083.426   1045.5371   2480.9679   0.13084   0.13084   1.36
    24875.06     1688.397   1973.1138   2490.2582   0.12506   0.12506  13.50
    25707.88     1527.212    923.3125   2491.6870   0.10884   0.10884  -5.01
    28409.82     1512.166   1097.5169   2494.5973   0.08870   0.08870  -8.98
    5826.215     698.4393   1635.8315   2485.5274   0.16901   0.16901 -88.42
    3077.988     509.0708   1796.4286   2483.0764   0.08374   0.06537   0.36
    17034.69     2102.581    622.7341   2494.5149   0.23303   0.12218 -65.72
    10801.26     1661.089   1380.7895   2497.3055   0.32366   0.32366  83.09
    52557.02     1852.017    711.1784   2516.0831   0.09340   0.09340  -8.59
     9096.98      1439.87   1083.0697   2496.8133   0.40708   0.40708  11.13
    12175.85     1502.051    998.0612   2500.6993   0.22807   0.22807 -65.87
    38531.06     1551.966   1977.3950   2514.9656   0.06189   0.06189  88.60
     9651.23     1240.836   1902.2740   2506.9775   0.25935   0.25935  86.73
     7805.43     1491.867   1907.6298   2506.2657   0.22796   0.22796  22.32
    7452.664     1138.317   1351.1322   2505.2608   0.39199   0.39199  10.10
    48557.25     2441.418    634.8119   2531.9164   0.14132   0.14132  62.80
    9399.938     1402.325   1532.3710   2517.9622   0.26030   0.26030  88.69
    560430.4     1429.243   1786.6984   2547.6396   0.00232   0.00232 -39.95
    15569.53     1585.973    839.6242   2521.7211   0.15325   0.15325 -83.58
    11490.52     1502.051    948.6581   2520.0165   0.24787   0.24787   2.18
     7876892      2741.43   1167.7071   2594.5420   0.00083   0.00083  88.77
    7967.973     1228.489    610.8864   2525.3367   0.28047   0.28047 -77.37
     20903.5     1852.017    186.1843   2541.5439   0.24912   0.24912  88.18
     30113.9     2180.876   1158.4355   2546.1166   0.17640   0.17640   0.09
    18360.93     1090.438   1550.2960   2539.2179   0.06581   0.06581  13.30
    17197.88     1391.411   1823.4048   2543.4251   0.12028   0.12028  36.66
    81447.48      1767.79    115.4453   2555.7834   0.04146   0.04146   4.20
    15057.14      1959.99     96.2472   2542.5790   0.33060   0.33060  81.57
    26512.59     1932.577   1290.4757   2546.4852   0.16231   0.16231 -54.96
     34307.7     1234.678   1043.1212   2554.1452   0.04863   0.04863 -33.37
    6099.066     1164.793   1871.4268   2546.8552   0.35239   0.35239  -3.93
    14441.45     1868.407   1970.8282   2553.6539   0.34505   0.34505 -84.06
    22526.43     2051.201    807.0524   2553.7298   0.23908   0.23908 -88.31
     3911.52     771.0562   1342.4627   2548.4505   0.23149   0.23149 -18.02
    28228.11     2371.739   1151.9257   2563.6822   0.30078   0.30078  -2.08
    5357.855     1090.438   1472.7936   2560.0805   0.31601   0.31601 -77.90
    14889.94     1772.096    759.1769   2562.9022   0.48256   0.48256  -9.29
       24652     2218.988    494.3115   2572.5866   0.23985   0.23985  87.26
    9121.566     1265.168   1554.2827   2569.1129   0.21541   0.21541 -79.86
    8709.859     1385.923   1036.8197   2571.9683   0.38049   0.38049 -29.44
    47916.68     1661.089    223.4648   2597.4680   0.08248   0.08248  16.76
       17258     1944.373   1105.2133   2587.1123   0.50039   0.50039  20.94
    6367.379     1090.438   1333.4655   2583.9845   0.30041   0.30041 -89.50
    24636.52     2106.203    136.0883   2594.8389   0.21143   0.21143  79.64
    4834.301     890.3389    378.4724   2583.7953   0.36527   0.36527 -89.27
    17255.52     964.3143   1498.3478   2593.8080   0.06730   0.06730 -11.25
    15625.57     1888.694    370.5542   2596.5086   0.43559   0.43559 -61.13
    9824.684     1341.204   1948.4885   2593.5683   0.26735   0.26735  -7.67
    60562.82     2184.368    408.7278   2610.1064   0.14726   0.14726  -5.09
    73980.09     2604.556   1345.5214   2618.7750   0.08519   0.08519  -3.75
    50321.36     1692.905    667.7555   2611.9008   0.09386   0.09386  71.63
    8010.523     1184.261    969.2052   2605.5566   0.20838   0.20838 -46.66
    9408.312     1216.017    462.3674   2610.6718   0.21890   0.21890 -34.73
    9062.398     972.1864   1790.5175   2615.8051   0.17628   0.17628  -0.94
    16738.32     1391.411   1612.0651   2624.8098   0.17291   0.17291  -1.66
    17028.98     1124.845    740.4982   2627.8276   0.11564   0.11564   1.70
    12934.01      1111.21   1540.4758   2627.5051   0.09348   0.09348 -73.42
    13590.92     1856.128    254.8317   2623.5898   0.38369   0.38369   4.01
    14762.37     1131.601   1961.8995   2635.9409   0.10010   0.10010  62.94
    7756.738     1445.154    945.8011   2633.0767   0.33848   0.33848   3.55
    16891.86     1551.966   1049.5771   2638.2128   0.20626   0.20626   4.31
    67308.92     1271.179   1540.2133   2647.8221   0.02033   0.02033  48.48
    177793.1     2428.897   1328.9048   2662.1128   0.03298   0.03298 -57.18
    7184.633     1003.057   1798.1177   2638.6989   0.22375   0.22375  76.01
    18146.98     1810.393    217.9755   2649.0440   0.18384   0.18384 -73.46
    8108.828     1277.161    460.2516   2639.9065   0.36127   0.36127  89.83
    7154.363     1054.909    973.3679   2646.9420   0.21586   0.21586   2.88
    6257.902     1054.909     71.7385   2642.0172   0.44144   0.44144 -79.12
    5673.168     1097.406    947.3904   2644.0881   0.29941   0.29941  89.17
    14049.62      1710.82   1537.1729   2654.5074   0.18494   0.18494   2.52
    6596.133     1151.631    956.7420   2648.4781   0.18899   0.18899 -89.89
    4995.828     956.3774   1617.6648   2643.9166   0.31714   0.31714  -0.49
     8958.16     1222.269   1023.1788   2658.7459   0.23268   0.23268 -40.35
    18781.39     1633.325   1502.3377   2664.2023   0.13224   0.13224 -78.64
    96641.26     3081.752    124.1897   2684.3358   0.10055   0.10055  -7.36
    53484.11     2159.804    515.5377   2674.3166   0.09280   0.09280   4.45
    19842.83     1216.017   1164.6316   2666.9795   0.08206   0.08206  -1.01
    6143.406     1283.115    527.3578   2656.9418   0.27027   0.27027  70.09
    8159.145     1209.732    365.2212   2658.9539   0.29744   0.29744 -78.63
    8409.609       1423.9     85.2275   2661.2366   0.39572   0.39572 -48.94
    8442.992     1177.808    949.6713   2664.8962   0.19016   0.19016  -8.06
    54489.93     1896.748   1633.1634   2681.4667   0.05536   0.05536   0.51
    132409.3     1944.373   1740.1862   2741.7540   0.02997   0.02997  26.67
    183222.6     4732.216    558.2919   2688.3623   0.26104   0.01825   8.29
     5364.75      676.261    483.5721   2670.0019   0.07859   0.07661  -0.00
    16230.32     1810.393    913.2392   2684.7441   0.26857   0.26857  13.11
    19514.86     2051.201    113.9030   2678.5581   0.34419   0.34419 -84.92
    26328.62     2036.283    732.7576   2686.6373   0.15660   0.15660 -68.82
    12629.26     1566.631    822.0657   2680.4664   0.25002   0.25002  -0.44
    15684.38     1512.166   1719.6189   2683.9186   0.13751   0.13751   1.01
    56171.42     1253.061   1758.0733   2692.1095   0.02866   0.02866 -79.45
    12804.83      1710.82    310.8821   2683.5559   0.42258   0.42258   1.73
    72997.28     1912.755   1134.4339   2701.9822   0.05279   0.05279 -89.94
    161936.3     4010.328    171.1498   2731.6883   0.08792   0.08792  -1.95
      134516     1486.749   1164.4113   2706.8457   0.01405   0.01405 -87.20
    145920.8      3414.95    606.7078   2692.0678   0.21905   0.21880  -0.00
     45683.8     1920.708    707.4564   2691.1161   0.22021   0.02428  -3.69
    36214.93     1590.771    219.4067   2699.1302   0.09830   0.09830  87.61
    6502.125     751.0253   1173.3838   2688.8004   0.23122   0.06738  10.59
    8026.637     709.2685    722.4190   2689.0000   0.22254   0.04408  10.43
    55617.09     3233.819    644.8893   2698.2466   0.19306   0.08561   3.80
    9707.684     881.7365    686.5880   2692.2954   0.14894   0.14894 -68.23
    19080.59     932.1614    675.0151   2692.0021   0.08840   0.02983  -1.75
    10334.32     687.4396    681.0771   2692.0307   0.03172   0.03152   0.25
    21760.82     1184.261   1521.6245   2701.6722   0.08627   0.08627  72.57
    97338.22      2088.03    318.7942   2717.7376   0.04755   0.04755  22.07
    4816.703     552.1648    906.8544   2696.9926   0.05051   0.04843   0.18
    25531.13     1670.241   1619.3311   2771.4089   0.17362   0.17362 -42.71
    4356.988     987.7424   1536.2947   2701.3391   0.31527   0.31527  -7.21
    9153.953     1312.481   1830.5493   2712.4889   0.25443   0.25443  88.26
    122753.3     2673.869   1029.0547   2771.7800   0.09135   0.09135   1.51
    11704.18      1710.82    370.5919   2721.6991   0.38207   0.38207  83.55
    18927.89     1920.708    971.0903   2733.6734   0.24634   0.24634  -8.15
    9732.961     1402.325   1596.8691   2730.3840   0.33997   0.33997  86.10
    106243.4     2428.897   1095.8445   2750.2551   0.04479   0.04479 -11.79
    17340.02      1860.23   1113.8869   2728.2606   0.29533   0.29533 -32.45
    232416.4     3624.994    986.2431   2776.0957   0.07845   0.07845  87.09
    9464.641     1228.489    405.5487   2732.0405   0.29415   0.29415 -89.23
    35188.69     1908.766   1190.5448   2748.4990   0.12738   0.12738 -31.48
    239187.5     1571.489    718.2761   2757.7441   0.00947   0.00947 -32.80
    6121.602     1054.909    280.1456   2737.3400   0.38777   0.38777  45.97
    16212.89     1551.966   1900.9575   2745.4701   0.14978   0.14978  -0.30
    8333.105     1358.146    346.7612   2742.0627   0.33133   0.33133  86.65
    9092.059     1335.508   1343.8782   2744.2588   0.27465   0.27465 -21.05
    5055.383     790.5797   2043.2880   2752.9026   0.28455   0.28455 -87.24
    20568.14     2273.283    692.6169   2759.4053   0.40232   0.40232  46.13
    10047.23       1423.9   1306.9775   2763.1799   0.28452   0.28452  89.85
    16212.07     1138.317   2038.2509   2771.5887   0.17180   0.17180  71.20
    6100.301     565.8005   1146.0016   2765.0100   0.05660   0.05660  80.67
     13439.3     1203.415   1793.5899   2778.4300   0.17490   0.17490  -8.56
    7388.391     1158.231    140.4519   2771.8293   0.38069   0.38069   0.48
    80483.17     2453.874   1391.7720   2809.2504   0.08547   0.08547 -71.99
    6603.629     1054.909   1497.3695   2777.3944   0.26621   0.26621  48.59
    5730.914     1083.426   1640.2817   2781.2806   0.28713   0.28713 -45.49
    5370.148     1010.628   1737.1332   2779.3247   0.27581   0.27581  16.19
    115766.5     3079.278   1219.0934   2827.0599   0.10680   0.10680  80.71
    18991.61     1642.632    956.3242   2795.3117   0.16019   0.16019  51.06
    13343.83     1665.672     45.9838   2792.6892   0.35425   0.35425  89.97
    7139.281     1265.168   1453.6203   2794.5817   0.25443   0.25443  34.65
    11676.19     1661.089    282.4339   2798.6752   0.28148   0.28148   7.39
    8161.234     1097.406   1353.4263   2796.2254   0.50289   0.50289  -2.08
    27314.13     1445.154   1975.1999   2808.6378   0.14082   0.14082  17.16
    18248.96     1413.154    480.1321   2815.7584   0.19955   0.19955 -78.91
    87351.88     1952.197   1617.7311   2824.8436   0.03646   0.03646  64.66
    14190.21     1670.241    450.9396   2813.5782   0.25265   0.25265  -0.81
    4761.508     972.1864   1898.3678   2807.1040   0.25598   0.25598  -1.72
    10102.17     1341.204   1926.0655   2816.2378   0.13895   0.13895 -17.44
    15866.71     1818.794    433.5356   2822.1896   0.29105   0.29105 -87.16
     3244134     2113.428   1547.9143   2888.1494   0.00089   0.00089  19.19
    16028.28     1300.814    576.1237   2827.5565   0.21490   0.21490 -72.65
    73130.31     2960.654    218.2458   2842.1968   0.18971   0.18971  63.86
    5927.688     687.4396   2005.3410   2825.0028   0.19571   0.19571   0.42
     14119.1     1647.266    162.0801   2831.3825   0.32182   0.32182  56.30
    4025.227     881.7365   1462.4172   2826.8649   0.30495   0.30495  85.60
    14484.21     1566.631   1402.6108   2836.0117   0.19245   0.19245   0.22
    3391.668     538.1837   2003.7290   2836.7847   0.21354   0.21353  -1.03
    51676.11     1600.326    742.4615   2857.0004   0.05408   0.05408  -1.92
     15121.4     1780.678    952.7543   2847.3953   0.27477   0.27477 -82.72
    28397.07     873.0492   1515.3108   2853.0196   0.02514   0.02513   0.02
    120145.6     3193.499   1700.1311   2876.5319   0.09122   0.09122  14.86
    22551.89     2242.904    321.8115   2857.3123   0.28953   0.28953 -66.81
     16153.6     1259.129    600.6527   2860.2775   0.21047   0.21047   6.85
     50380.3     1987.026   1632.5172   2874.7503   0.11078   0.11078 -61.14
    36908.44     1507.117    348.8954   2868.2985   0.07484   0.07484  88.67
    11065.18      1476.46   1802.5506   2870.4201   0.22010   0.22010  85.11
    86107.19      2283.32   1308.8866   2885.6385   0.06158   0.06158  19.21
    14536.48     828.2471   1851.1483   2867.8597   0.04918   0.04918   4.65
    19319.38     1271.179   1862.4892   2867.8455   0.30522   0.30522  89.56
    13323.77     1692.905    813.1814   2886.6482   0.41137   0.41137  20.76
      158759     2963.227    251.4620   2917.1155   0.07905   0.07905  89.09
    48070.45     2306.569   1810.3107   2897.4297   0.14254   0.14254  81.88
    22307.49     1683.876   1577.9526   2891.3945   0.18726   0.18726  89.08
    26418.19     1346.875     52.5643   2914.9262   0.22711   0.22711   5.22
    20139.58     1144.993   1592.1756   2890.9560   0.08282   0.08282  80.54
     9686.66     1369.324   1965.2377   2893.3782   0.19421   0.19421   7.42
    15541.05     1158.231    368.4225   2900.9939   0.21096   0.21096  -0.92
    6235.004     800.1628   1602.2564   2891.0584   0.13113   0.13113  88.14
     13255.2     1151.631   1570.0665   2893.0684   0.10180   0.10180 -13.03
    45298.98     2572.164    331.1805   2907.7566   0.18133   0.18133  41.83
    10215.33     1450.418   1024.3269   2896.1298   0.34081   0.34081  77.80
     10869.9     1642.632    596.9414   2900.1020   0.41801   0.41801 -53.22
    40114.33     2159.804   1005.9983   2918.5753   0.14730   0.14730 -89.01
     4747908     1864.323      5.6651   2967.1330   0.00086   0.00085 -90.00
    5988.426      1062.11   1386.9129   2905.5528   0.37853   0.37853   0.84
    59556.07     2293.312   1658.7190   2932.5988   0.09263   0.09263  13.41
    14489.41     1532.195   1650.4300   2921.0733   0.25287   0.25287 -89.57
     2801112     2113.428     17.5276   2962.6141   0.00153   0.00153 -21.38
    4065.227     538.1837    286.0222   2914.9592   0.03369   0.03334  83.65
    16462.08     1674.799   1031.2641   2925.2843   0.29565   0.29565 -55.97
    11836.06     1455.664    206.6696   2924.5825   0.21475   0.21475  59.33
    44324.36     1737.346   1737.6872   2935.4867   0.07034   0.07034  -0.26
    8118.266     1369.324     93.8987   2926.6363   0.35587   0.35587   3.41
    12673.94     1018.142    329.4410   2929.3819   0.17858   0.17858 -32.89
    170579.5      2374.95   1323.5787   2970.2846   0.04316   0.04316 -81.45
    21667.42     1527.212   1865.0149   2938.1371   0.12232   0.12232  -0.85
    38916.77     1814.599   1871.9823   2942.6685   0.05713   0.05713   2.99
    43962.24     1003.057   1391.5769   2964.5635   0.01776   0.01776 -89.51
    305249.3     3345.043    652.2163   2979.1450   0.04261   0.04261   6.32
    22471.31     2263.202    488.0688   2944.9238   0.26072   0.26072  14.20
    5059.184     565.8005    859.9421   2941.0114   0.06914   0.06896 -11.10
    15068.39     1697.402    502.9148   2947.8845   0.23392   0.23392  -4.70
    4965.367     818.9927   1061.2699   2944.1272   0.06356   0.06071   0.74
    62600.11     2598.697   1515.1292   2969.5947   0.11234   0.11234  83.21
    20250.93     1138.317   1844.1086   2959.9278   0.07275   0.07275 -56.96
    14354.16     1715.269   1568.2835   2962.4272   0.28915   0.28915 -89.92
    4712.469     771.0562   1369.2169   2953.7946   0.15918   0.15918  -0.13
    4148.258     538.1837   1364.4887   2952.3101   0.10249   0.10147   0.02
     9227.68     1413.154    321.2927   2958.9823   0.34209   0.34209  89.90
    7662.668     1228.489   1968.6854   2958.0118   0.25025   0.25025  89.02
    9281.289     1144.993   1672.5673   2963.9536   0.22367   0.22367  -0.35
    30111.43     2839.759     37.7228   2970.2638   0.41014   0.41014  50.92
     3241.68     698.4393   1467.0938   2959.7258   0.25606   0.25605 -89.56
    233329.2     2066.011   1425.7066   2989.5832   0.01536   0.01536  79.55
    48719.23     2539.358   1761.8675   2991.3804   0.15862   0.15862  18.80
    10904.15     1561.758   1549.6559   2968.3564   0.28415   0.28415 -47.67
    8287.035     1253.061   1356.6987   2968.2678   0.28994   0.28994 -20.59
    17446.62     1177.808   1511.6274   2971.8575   0.08724   0.08724  15.28
     4391290     2127.805   1253.2143   3042.7892   0.00084   0.00084 -11.34
    6369.816     1131.601   1709.3709   2973.7318   0.24370   0.24370  17.60
    34763.35     2080.716    949.1926   2987.5551   0.12202   0.12202 -87.83
    26746.88     1998.501   1751.3504   2995.6694   0.14854   0.14854  59.73
    29550.21     1967.753   1552.8457   3000.4388   0.12281   0.12281  86.92
    12737.47     1806.178     94.7781   2995.5430   0.43450   0.43450 -88.95
    6422.543     873.0492   1179.9329   2991.6934   0.19784   0.06755   7.50
    118900.9     2842.442    706.9116   3021.2357   0.07704   0.07704  87.53
    58791.57     2319.749   1042.2841   3013.2800   0.13111   0.13111 -50.72
    65780.87     2560.283    280.0172   3013.7147   0.12462   0.12462  70.02
    13665.11     1581.159    400.6156   2998.3783   0.29703   0.29703 -22.71
    171226.5     1283.115   1975.5455   3015.5433   0.00715   0.00715  73.28
    10839.25     1661.089    571.4110   3001.3955   0.34574   0.34574 -56.90
    7132.008     1234.678   1546.3732   2996.2780   0.33254   0.33254 -79.32
    11550.55     1460.891    981.5248   3045.9657   0.19783   0.19783   1.16
    6734.238     1047.659    299.7151   3003.4919   0.38633   0.38633  76.09
    10187.32     828.2471      8.8571   3015.6268   0.09297   0.09297 -88.42
    7794.477     1118.048    342.5518   3015.7136   0.29882   0.29882 -87.35
     9053.93     1341.204   1007.3102   3019.1351   0.38020   0.38020  64.78
    11275.46     1754.807    888.1549   3021.2510   0.34768   0.34768 -23.58
    7505.957     1253.061   1420.0712   3018.6392   0.27518   0.27518  85.45
    17935.91     1835.481    904.9851   3027.5381   0.16870   0.16870  -0.20
      5058.5     1010.628   1297.1475   3022.2004   0.34832   0.34832  17.76
    4353.969     995.4292   1931.6437   3021.7162   0.35420   0.35420 -12.66
    7321.422     1144.993   2035.4143   3027.9448   0.31205   0.31205  89.55
    3115.773     493.8712   1993.0901   3030.0367   0.06663   0.06419  -1.13
    9546.195     1171.318   2032.0337   3036.6822   0.18721   0.18721  -0.78
    22893.57     1600.326   1008.0636   3042.9624   0.11217   0.11217 -54.10
    233155.4     2481.672    232.4550   3066.1260   0.02656   0.02656  16.31
    17827.56     1253.061   1192.7503   3053.5268   0.21918   0.21918  -6.45
    22800.88     1827.156   1516.0980   3045.9936   0.20224   0.20224  72.18
    6250.359     592.1307   1905.9842   3039.0351   0.02167   0.02151 -82.36
    24123.75      1710.82   1373.2372   3047.6843   0.18224   0.18224  35.37
    6055.531     1010.628   1019.6811   3037.3775   0.32360   0.32360 -75.96
    10494.71     709.2685   1124.2541   3041.1728   0.03379   0.03327   0.72
    37654.61     1940.449   1081.8977   3054.7274   0.09238   0.09238  89.79
    8734.535     1413.154    614.2665   3044.7467   0.27479   0.27479  51.44
    27758.93     2463.175    374.6042   3049.9776   0.31921   0.31921  89.73
    149045.4     1083.426   2045.1652   3069.1820   0.00658   0.00658 -89.95
    17318.88       1423.9    967.6351   3065.9319   0.19065   0.19065   0.09
    21148.58      2077.05    110.9112   3067.9917   0.25592   0.25592  61.01
    15680.86     1614.551    915.3728   3075.5117   0.16020   0.16020   4.37
    176539.9     3294.532     96.7555   3115.3885   0.06083   0.06083 -74.83
    16781.34     2062.319    172.1239   3081.0031   0.41565   0.41565  89.65
    110881.7     2735.864    110.9898   3105.2978   0.06187   0.06187  89.91
    6970.969     698.4393   1087.3727   3086.4668   0.06801   0.06781  89.93
    283606.2     1341.204   1836.1715   3276.0005   0.00454   0.00454 -89.90
    6111.891       855.41   1387.2107   4095.3702   0.19889   0.11512  18.43
    19876.79     1522.213    121.5323   4093.3702   0.25509   0.22758  -0.00
    5902.887     579.1153    543.0065   4090.9081   0.02319   0.02199 -88.62
    5453.891     1033.006   1971.2870   4075.5803   0.29432   0.29432  88.94
    16896.29     1527.212    216.2322   4070.2353   0.23628   0.23628  47.39
     14655.3     1380.412    714.1622   4067.3226   0.19508   0.19508 -62.13
    71156.53     3198.269    194.3152   4062.7488   0.17882   0.17882 -41.87
    18898.67     1728.549   1703.1144   4055.9402   0.17350   0.17350 -80.45
    35363.76     1380.412    103.1677   4051.8021   0.14489   0.14489  13.83
    31168.66     1532.195    725.0448   4053.9013   0.12425   0.12425  45.36
    10377.52     1076.367    684.3790   4053.5139   0.24925   0.24925 -87.20
    5128.211     641.5575    358.2276   4053.6415   0.05636   0.05312 -88.59
    15733.73     1741.728   1684.4662   3477.4069   0.23753   0.23753   5.85
1.329115e+07     3446.057   1100.9516   3428.4658   0.00090   0.00090  89.85
    5796.879     1040.358    669.2843   3456.9552   0.36123   0.36123  -1.14
    23629.39     2413.156    255.7910   3429.7884   0.44970   0.44970  18.65
    10610.25     1527.212   1381.6206   3451.5905   0.28844   0.28844  14.21
    14155.95     1358.146   1915.9338   3292.2891   0.18868   0.18868 -67.61
    27400.66     1661.089    971.1210   3275.6051   0.15488   0.15488  83.91
     10915.8     1916.736    404.6152   3424.0436   0.40197   0.40197 -88.45
    46164.91      2017.48   1851.7861   3281.1460   0.08620   0.08620  53.94
    6615.797     1124.845    983.3693   3417.5069   0.26469   0.26469  -3.57
    4227.555     890.3389   1445.1739   3413.5354   0.33231   0.33231 -23.36
    32520.33     1216.017   1541.1685   3407.0361   0.05295   0.05295 -89.09
    25857.41     761.1066   1040.3171   3407.2554   0.01369   0.01354   0.90
    25302.44     809.6325    925.6917   3389.7334   0.02388   0.02387   0.23
    14564.51     1987.026    466.4909   3387.1859   0.39218   0.39218  -0.35
    24119.79     809.6325   1064.9747   3393.5865   0.02308   0.02297  90.00
    416213.9     1724.134    581.8267   3396.5970   0.00662   0.00662 -88.63
    9376.242     1522.213    964.1156   3390.9073   0.33889   0.33889  27.73
    14903.03     1750.458   1782.6207   3379.3801   0.25735   0.25735  -3.00
    26572.67     2232.686   1670.8519   3374.4073   0.45706   0.45706  -6.86
     7350.77     1222.269    401.7484   3356.0343   0.34063   0.34063  -0.80
    9502.426     1369.324   1926.0995   3366.0951   0.26594   0.26594 -41.39
    74733.95     1335.508   1288.0407   3340.2032   0.02184   0.02184 -87.79
    33144.64     1880.605    510.6235   3363.9011   0.12172   0.12172   2.71
    185123.1     1633.325    594.3747   3332.7433   0.01466   0.01466 -18.58
    16627.74     1908.766    914.7688   3344.1731   0.28761   0.28761 -42.58
    13133.87     972.1864   1995.6351   3212.9702   0.11091   0.11091  10.88
     2855717      1860.23    721.6070   3209.7290   0.00099   0.00099 -27.88
    170660.1     1455.664    995.9291   3549.5054   0.01175   0.01175  88.98
    6484.402     1138.317   1513.3695   3119.9726   0.29710   0.29710   2.12
    21390.85     1806.178    764.9972   3208.6933   0.19366   0.19366  88.12
    13122.29     1637.985   1230.8191   3811.8376   0.24701   0.24701  50.09
    32158.79     2463.175   1569.2066   3857.8591   0.27435   0.27435  60.28
    8838.445     1374.879   1239.6121   3202.7612   0.33472   0.33472 -25.81
    17203.07     1759.145    532.6713   4064.4481   0.26884   0.26884 -18.19
    25456.65     2043.756    385.6997   3170.0836   0.22372   0.22372  39.99
    25831.56     1633.325   1728.6657   3149.1597   0.11514   0.11514  61.32
     34899.3     956.3774   1817.0431   3118.4024   0.02122   0.02122  89.97
    92071.95     1234.678   1635.8665   3195.5525   0.01433   0.01433  -2.77
    38967.02     1715.269   1023.0310   3133.1838   0.13358   0.13358   3.79
    20689.31     1872.482   1721.8615   3139.6332   0.15820   0.15820 -20.14
    7743.074     1253.061   1481.1748   4080.9112   0.36613   0.36613  38.44
    7037.578     1097.406   1348.1092   4002.9640   0.41489   0.41489  71.38
     3488.77     751.0253   1399.8267   3086.4750   0.24974   0.24973 -89.67
     15428.9     1076.367   1997.1384   3886.1503   0.08978   0.08978  45.10
    11596.79     1628.652   1441.1265   3101.8063   0.49774   0.49774 -87.75
    50005.72     2194.812   1000.8900   3924.1911   0.08402   0.08402 -68.77
    34809.58     1772.096   1856.4970   3904.8506   0.07824   0.07824  -0.20
    5979.352     730.4453   1440.0432   4019.3110   0.12048   0.12045 -89.94
    15366.33     1083.426   1378.8835   3964.0229   0.29659   0.29659 -75.88
     62996.8     1418.537    927.7311   3991.3124   0.03614   0.03614  27.05
    12168.04     1413.154    645.4926   4059.0780   0.23658   0.23658 -88.61
    181129.7     1983.187   1167.7804   4031.8864   0.02431   0.02431 -83.44
     9010.02      1306.66    389.6889   3990.3197   0.30632   0.30632  50.81
    129194.7     3130.828    634.8264   3991.8448   0.09306   0.09306 -51.65
    5566.922     629.5647   1092.0302   3958.5031   0.08444   0.08310 -90.00
    8134.137     1300.814    235.7286   3987.5355   0.34125   0.34125   0.77
    18846.43      1190.68   1279.8101   3992.3136   0.12785   0.12785  15.11
    23088.52     2496.982     41.8474   3994.1332   0.34573   0.34573  19.42
    37476.51     1715.269    622.5615   3954.8667   0.09470   0.09470  82.81
    28721.52     2091.677   1579.3924   3945.1686   0.24252   0.24252  87.35
    93680.75     2845.122     68.6532   3956.2769   0.10743   0.10743  14.74
     23364.6     1688.397   1932.5342   3963.3080   0.21604   0.21604   5.07
    27862.17     1814.599   1936.4580   3920.3305   0.11616   0.11616  89.10
    8804.445     1369.324   1863.6599   3915.9916   0.38916   0.38916 -88.72
    639492.3     1880.605    352.9645   3894.2271   0.00547   0.00547 -84.03
    26413.62     2239.503   1180.1535   3918.2455   0.22347   0.22347 -74.30
    6922.793      1190.68    733.9518   3912.5756   0.35101   0.35101  84.79
    4301.492     641.5575   1841.8025   3894.0888   0.05923   0.05637  -1.57
    14487.18     1203.415   1263.4826   3883.7707   0.22835   0.22835  -3.20
    25935.84     2062.319   1092.4851   3895.2724   0.19416   0.19416  -0.93
     8145.16     1283.115    963.7332   3836.6141   0.22759   0.22759   9.47
    13543.43     1701.886    419.0430   3832.8634   0.36066   0.36066 -70.90
    11071.58     1124.845   1808.6476   3842.6535   0.21349   0.21349 -57.81
    22683.25     1329.789    552.1519   3795.6157   0.13670   0.13670  -5.64
    10404.96     1090.438   1612.4109   3739.0965   0.18854   0.18854 -21.51
    37087.59     2236.097     96.9329   3703.1205   0.16896   0.16896  25.43
    5282.055     948.3741   1374.6176   3669.8879   0.29073   0.29073  -5.70
    8036.953     1346.875   1942.7391   3743.7790   0.28987   0.28987 -60.13
     4156093     2109.819    292.2310   3718.2200   0.00096   0.00096  31.70
    6281.746     604.8662    934.0139   3710.9417   0.02557   0.02520  85.55
    6639.176     1083.426   1952.7941   3756.4230   0.25257   0.25257  79.14
    12575.86      1476.46   1534.4490   3773.2075   0.22367   0.22367 -13.59
    4099.648     698.4393   1682.7995   3728.7533   0.28330   0.28330 -30.82
     21027.5     2084.376   1590.5219   3760.0290   0.24646   0.24646   1.20
    534995.8     4762.721   1485.2452   3682.7616   0.05124   0.05124 -33.55
    6946.602     1144.993   1701.9756   3687.3861   0.38930   0.38930   1.77
    11576.69     1131.601   1628.6131   3680.8968   0.17903   0.17903  -6.33
    4859.797     604.8662    346.5045   3712.6950   0.06695   0.06464   0.03
     8128.91     1324.045   1266.6608   3693.3052   0.33897   0.33897 -27.92
    638503.9     1741.728    913.3481   3695.6938   0.00359   0.00359   5.46
    21306.91     1318.275    335.3999   3664.3918   0.14988   0.14988  -9.34
    9137.613     1434.566    740.1698   3478.4088   0.31805   0.31805  -0.01
    50486.72     1952.197   1003.7081   3640.2043   0.09050   0.09050 -75.61
     6553.98     987.7424   1948.7675   3652.5929   0.23681   0.23681 -88.43
    52240.72     3079.278    162.5538   3551.4314   0.28672   0.28672  49.64
    24247.64     1789.218    167.6576   3682.4776   0.17680   0.17680  22.83
     37227.9     2345.888    321.3196   3536.1323   0.13732   0.13732  51.37
    13165.55     1158.231   1281.4496   3545.1824   0.12688   0.12688  -5.94
    3952.418     538.1837    927.0399   3641.0053   0.03814   0.03804   6.96
    5653.078     972.1864   1594.5931   3700.0479   0.22890   0.22890  81.78
    58733.78      1710.82    258.3416   3617.0702   0.07412   0.07412 -86.60
    16298.79     1908.766     21.1062   3615.5263   0.50644   0.50644 -87.41
    11744.93     1547.047   1778.8611   3636.5378   0.27955   0.27955 -88.36
    4969.598     1083.426    708.4839   3659.2932   0.27319   0.27319  89.02
    36374.18     1940.449    780.6510   3628.9648   0.10859   0.10859 -84.75
    15820.18      2017.48    749.8118   3644.6843   0.32530   0.32530 -67.34
    14079.29     1228.489      8.1144   3613.9960   0.28709   0.28706 -90.00
    21419.19     2032.536    229.7039   3626.8310   0.24654   0.24654  55.32
      8328.5     828.2471   1032.9367   3544.8295   0.15838   0.15838   0.34
    9253.191     1054.909    724.0343   3644.0319   0.26225   0.26225   1.57
    6903.074      1104.33   1716.3742   3457.8819   0.40176   0.40176   4.96
    17429.52     1963.875   1907.4477   3645.4329   0.27895   0.27895  12.64
    11677.85     1532.195    469.6050   3622.8694   0.26194   0.26194 -89.55
    34525.36     1527.212   1994.5723   3625.8418   0.06893   0.06893 -88.00
    5591.352     1158.231   1844.1382   3682.1618   0.27143   0.27143 -34.96
    16767.16     1679.344    912.3975   3788.2660   0.25402   0.25402   3.90
    11315.42     1571.489   1867.4803   3597.4067   0.35458   0.35458  -0.10
    26275.19     1892.725    398.0375   3235.3747   0.17481   0.17481   2.64
    3475.062     523.8295   1872.8034   3525.0077   0.09180   0.08567  89.47
    18890.02      676.261   1061.0762   3392.8925   0.01150   0.01134 -83.47
    5045.012     790.5797   1886.0930   3496.8756   0.22314   0.22314 -77.34
    7701.684     1138.317   1803.5889   3520.7424   0.25553   0.25553  -1.74
    18915.49     1253.061   1590.8182   3231.0420   0.18924   0.18924   0.77
    13782.09     964.3143   1600.8082   3239.1499   0.04245   0.04244   0.04
    50960.18      2283.32   1419.3975   3460.9832   0.13464   0.13464  -0.37
    60773.07     1300.814   1307.1666   3444.0935   0.02704   0.02704 -25.08
     1037788     1623.965    947.6048   3498.9530   0.00204   0.00204   1.77
     29008.7     1434.566   1492.5547   3508.5107   0.06704   0.06704  -0.50
     1665910     1628.652   1223.0655   3535.3699   0.00117   0.00117  -1.32
    670594.1     1776.392    554.0468   3445.2090   0.00419   0.00419 -85.73
    27577.87      2583.99    518.5033   3251.7216   0.34943   0.34943  85.88
     18190.8     1363.746   1389.5914   3276.0688   0.19050   0.19050  -0.16
    14498.24     1076.367   1233.9357   3256.1183   0.09379   0.09379 -18.47
    8074.641     1289.042   1554.1288   3475.1302   0.26130   0.26130 -66.76
    16562.41     1600.326   2018.8772   3247.0458   0.15349   0.15349  79.98
    45168.03     2084.376   1218.4304   3245.5879   0.10462   0.10462 -85.91
    21531.01     1839.629     22.9312   3384.6019   0.45399   0.45399 -85.40
     26348.8     2682.407    468.5208   3281.4599   0.32383   0.32383 -68.09
    14538.85     987.7424   1579.7289   3471.8541   0.10621   0.10621 -86.51
    13192.61     1750.458    622.8445   3435.6012   0.29001   0.29001  -4.76
    13879.55     1402.325   1606.8467   3282.8328   0.16055   0.16055  46.18
    24116.77     1576.331   1864.0559   3387.7585   0.11300   0.11300 -85.00
    53416.91     2229.269    838.0820   3275.4950   0.09794   0.09794  89.07
    3641.934     972.1864   1264.1556   3389.2342   0.33210   0.33210 -20.34
    5121.375     1131.601   1626.6059   3371.1257   0.33824   0.33824 -85.20
    12723.42     1025.601   1443.2679   3365.8938   0.16062   0.16062   8.53
    6486.453     1076.367   1305.3611   3411.4713   0.26757   0.26757 -55.13
     5045395     2239.503   1034.1714   3272.2467   0.00084   0.00084 -88.66
    6792.309      1104.33   1568.3674   3326.6925   0.43040   0.43040 -80.83
    9852.148     1265.168   1908.2621   3376.4527   0.17006   0.17006 -74.59
    15576.44     1940.449    521.5390   3354.2733   0.37825   0.37825  -3.80
     15667.5     1818.794    854.5787   3363.3064   0.22701   0.22701  -0.18
    13098.63     1843.767   1324.9246   3338.9871   0.36743   0.36743  33.46
    26493.97     2225.847   1251.5113   3373.0200   0.26962   0.26962 -75.82
    55093.71      2077.05   1578.5814   3331.6359   0.12540   0.12540 -34.96
    22308.92     2102.581    622.6003   3300.8340   0.25459   0.25459 -42.52
    38670.75     1277.161   1333.2351   3330.6172   0.03947   0.03947 -85.48
    9472.383     1131.601   1585.6559   3519.3246   0.21059   0.21059  57.08
    22641.16     1872.482   1079.7364   3302.0479   0.12242   0.12242  -2.65
    19281.83     1908.766    571.2469   3362.8302   0.21549   0.21549  44.56
    7450.266     1222.269   1052.5677   3335.5320   0.37352   0.37352 -50.49
        7197     1259.129   1201.5984   3351.6643   0.34997   0.34997 -37.97
    5163.734     629.5647   1272.1811   3302.1456   0.09165   0.09154   0.22
    47171.13     1177.808   1523.4896   3297.0723   0.02972   0.02972 -89.95
    17859.11     1776.392    466.7368   3267.1554   0.21973   0.21973 -15.25
    5610.812     979.9952   1897.4708   3337.9290   0.24287   0.24287 -86.01
    19802.96     1609.823   1776.8808   3309.2082   0.29256   0.29256 -83.33
     7864.75     800.1628   1310.6673   3354.8710   0.15513   0.15513 -11.80
    36595.43     1741.728   1035.6561   3308.8151   0.08589   0.08589  77.65
    12473.87     1396.879   1418.2328   3324.5426   0.15943   0.15943  82.13
    16356.96     1701.886   1080.3847   3297.2280   0.29727   0.29727 -84.10
    6726.555      1104.33    763.0325   3325.8282   0.35193   0.35193   4.33
    55142.07     3016.761    928.2886   3289.9813   0.24499   0.24499  -0.15
    11427.33     1097.406   1501.7213   3284.1864   0.26320   0.26320   1.82
    28554.71       1423.9   2040.4548   3318.4838   0.12593   0.12593  89.96
    6613.707     1124.845   1350.7198   3313.6491   0.22847   0.22847 -76.72
    12757.85     1605.081   1316.6552   3302.1897   0.21255   0.21255 -10.06
    6597.105     923.9484   2025.0483   3306.5485   0.23001   0.23001  89.14
    14139.86     698.4393    924.1422   3299.8558   0.01513   0.01495 -48.81
    32385.96     2671.017   1168.0870   3270.7372   0.29252   0.29252   1.02
    25005.21     2527.323    606.5969   3552.0405   0.28537   0.28537  -2.18
     15636.5     1763.473    626.9612   3305.4687   0.26890   0.26890  81.39
    128268.2     2276.634     11.7671   3262.1645   0.05215   0.05215 -89.91
    16255.41     1507.117   1247.1843   3258.3652   0.14822   0.14822  -5.70
    7087.168     641.5575   1411.7299   3190.9737   0.04737   0.04452  -0.08
    9260.117     1124.845   1978.2368   3215.4015   0.13484   0.13484  86.85
    10139.73     1259.129   1882.9374   3277.3651   0.22894   0.22894   0.44
    13380.39     1380.412    821.8793   3259.8446   0.16935   0.16935  17.61
     2195379     1706.359   1348.4617   3884.8899   0.00102   0.00102  -0.06
    22236.41     2036.283   1831.3708   3156.6310   0.26919   0.26919 -38.52
    17587.87     1391.411   1245.2587   3264.8445   0.20983   0.20983 -79.79
    437525.4     2890.307    247.5537   3244.6238   0.02061   0.02061  -3.13
    16945.34     1789.218    360.4792   3285.5170   0.20679   0.20679  82.98
    9065.625     1450.418    845.1375   3254.7050   0.37714   0.37714 -35.43
    7744.809     1222.269    494.2562   3261.8948   0.30621   0.30621  84.51
    250635.8     1341.204   1642.2575   3174.2823   0.00545   0.00545 -38.74
      151302     2575.125    394.9034   3214.0096   0.04979   0.04979  13.51
     61018.4     1445.154    823.5140   3234.6605   0.03593   0.03593  13.18
    5476.199      676.261   1650.1060   3532.0319   0.24495   0.24495  61.21
    9126.484     1385.923   1552.1683   3174.3709   0.42550   0.42550  84.15
    199209.5     2509.162   1417.4866   3211.1106   0.02454   0.02454   8.36
     6546.93     664.8944    849.0230   3727.9646   0.05164   0.05159 -89.16
    36524.87     2142.086   1394.6792   3196.9960   0.14200   0.14200   0.45
     4498.18      617.339   1865.5635   3141.3827   0.21460   0.21459  18.34
    35570.46     2212.107   2012.6152   3179.3275   0.12843   0.12843  49.69
    5593.965      1062.11   1587.5449   3120.8055   0.35877   0.35877  88.64
    5995.391     1018.142   1518.7442   3183.9566   0.24528   0.24528   2.10
    3359.086     565.8005   1806.8174   3183.7328   0.24597   0.24596 -89.79
    35579.27     2397.311    536.2983   3187.2380   0.19524   0.19524 -33.41
    88749.09     1674.799      7.8173   3153.1814   0.03799   0.03799 -89.97
    124299.6     2963.227    534.7701   3170.2727   0.08536   0.08536  11.50
    4670.785     709.2685   1826.7594   3185.4959   0.23302   0.23302 -89.93
    16823.26     1324.045    921.3655   3122.8267   0.13313   0.13313 -18.62
    8518.543       1423.9   1985.4860   3121.5166   0.34755   0.34755  37.44
    10034.38     1369.324   1809.6626   3148.8896   0.22062   0.22062  14.39
    10616.55     1502.051   1836.9968   3154.2065   0.32166   0.32166  -7.43
    27483.79     1647.266   1293.6209   3183.0119   0.11349   0.11349 -88.13
    6878.719     1259.129   1415.8788   3154.3737   0.34247   0.34247 -26.20
    16729.55     1728.549   1129.7575   3097.8357   0.25060   0.25060 -16.49
    47652.04     1916.736   1052.4984   3131.2946   0.14895   0.14895  84.68
    83810.58     1429.243    823.2632   3148.6404   0.02521   0.02521 -73.89
    192613.7     1614.551   1020.7006   3162.7740   0.01286   0.01286 -75.01
    11797.59     1455.664   1917.2308   3122.6059   0.15862   0.15862   0.39
    5646.523     1090.438   1334.4056   3163.9091   0.38040   0.38040  -5.13
    31164.29     1789.218   1617.9974   3151.0966   0.07226   0.07226 -87.36
    47360.25     1936.517    635.2667   3135.4129   0.06805   0.06805  26.15
    14591.85     1831.323    892.1609   3953.9801   0.37661   0.37661 -34.79
    17203.35     1912.755   1895.9787   4085.4479   0.30815   0.30815  -6.00
    21411.32       1423.9    644.5923   4040.4494   0.12431   0.12431 -51.48
    8860.473     1385.923    188.2672   3155.5585   0.30266   0.30266 -88.93
    8629.172      1190.68    934.1427   3153.6796   0.42651   0.42651  18.35
    9437.109     1018.142     66.3898   3994.2181   0.34373   0.34373 -10.37
    31464.57      2374.95   1552.0113   3136.1506   0.21019   0.21019 -23.91
    4523.703      676.261    508.7369   4047.3285   0.14902   0.14900 -89.89
    15865.34     1904.768    140.3997   4056.1898   0.30500   0.30500  -2.85
    11900.25     1661.089   1735.6848   3095.7319   0.30716   0.30716  47.00
    25078.37     1413.154    414.9668   3097.7463   0.11946   0.11946   1.72
    6565.062     1352.522   1085.1440   3135.9118   0.34182   0.34182 -15.64
     42501.8       1423.9   1872.5644   3972.7565   0.03938   0.03938  -4.02
    36184.88     1277.161   1857.2085   4013.9355   0.07049   0.07049   8.36
    9048.949     1385.923   1267.9635   3944.5992   0.39196   0.39196  -1.33
    2953.973     523.8295   1553.6927   3095.9830   0.12909   0.11954  89.74
    86924.39     2253.076    522.4151   4022.0063   0.08110   0.08110 -11.96
    11324.09     881.7365   1825.0498   3100.8973   0.10731   0.04501  43.62
    16347.76     1402.325   1459.9247   3882.2907   0.18521   0.18521  -6.87
    8074.043       1423.9   1607.6335   3128.9781   0.33413   0.33413 -87.40
    35423.84      1111.21   1925.7555   4077.2673   0.03923   0.03923  37.32
      978649     1502.051   1588.7319   3907.5767   0.00162   0.00162 -78.30
    8447.465     1380.412   1583.1927   3091.2012   0.21472   0.21472  43.36
    23642.81     1537.162   1160.1210   4072.0258   0.11656   0.11656  -9.93
    160119.2     1374.879   1363.3286   4025.9512   0.01074   0.01074  89.36
    4357.109     604.8662   1111.0205   3090.5875   0.06612   0.05386 -89.93
    27144.04     1324.045   1831.6126   4044.0065   0.08550   0.08550 -89.95
    10534.07     780.8789    236.0747   4033.0693   0.05147   0.05147  89.98
     7515.73     664.8944   1574.8727   4078.9444   0.03639   0.03609   2.39
    120644.3     2939.986    996.2186   3944.4259   0.05978   0.05978 -82.44
    37114.38      3026.85    624.8839   3908.4513   0.31245   0.31245  88.79
     11760.4     1679.344   1674.4116   4030.9229   0.35861   0.35861   0.49
    13762.62     1872.482   1360.2900   3990.4074   0.32379   0.32379 -26.48
    13886.01     995.4292   1475.7018   3457.3798   0.09028   0.09028  57.84
    286292.8     3142.977   1015.1180   4028.9209   0.02858   0.02858  34.83
    257192.8     4087.511    428.7477   4014.2068   0.07095   0.07095 -69.09
    441314.5     3233.819   1503.2153   3972.2893   0.02460   0.02460  25.00
    17122.21     1164.793   1386.7285   3971.5853   0.39061   0.39061 -18.64
    10691.41     1445.154   1926.0115   4035.5182   0.25737   0.25737  89.29
    55268.43     2557.304     42.4761   4020.9126   0.17140   0.17140 -89.41
    123399.9     3689.601    822.9314   3987.2404   0.12417   0.12417  -2.05
    3661.535     538.1837   1808.0287   3704.9857   0.03993   0.03982 -16.14
    398941.9     3452.686     35.3421   3975.0411   0.02612   0.02612  -1.56
    13117.28     1759.145    220.8486   4029.5709   0.39901   0.39901   0.26
    10276.36     1595.556    890.0765   4035.1858   0.30231   0.30231  20.01
    21878.28     1352.522   1374.0689   3958.3798   0.19077   0.19077  89.83
    24578.68     2339.381    116.8307   3750.8878   0.30716   0.30716  67.32
    32456.95     1904.768    925.2450   4034.6043   0.19472   0.19472  27.96
    38146.38     2610.402    515.9556   3460.8809   0.22760   0.22760  -3.81
     1318558     4816.827   1040.2299   3931.6588   0.01631   0.01631  -7.24
    30203.14      1556.87     27.8875   3928.8420   0.17323   0.17323  22.41
    133176.9     1418.537   1795.3593   4016.5012   0.01406   0.01406   0.37
    5912.172     837.3994    762.9038   3951.8920   0.06102   0.06093  86.77
    63945.65     2478.599    147.6917   3945.4602   0.12705   0.12705 -69.31
    28305.18     1900.763    133.8870   3990.6951   0.21581   0.21581 -12.30
    5877.816     1040.358   1133.3341   3960.4442   0.37041   0.37041  85.52
     5103632     2303.262   1447.0989   3527.9219   0.00085   0.00085  20.99
    7223.426     1253.061    651.6822   4026.7974   0.27872   0.27872  -7.07
    14296.44     1502.051   1650.2306   3902.1965   0.28092   0.28092  18.02
    5883.277     1222.269    546.1135   3963.4695   0.34056   0.34056 -88.63
    16692.75     1138.317   1993.9381   3956.3565   0.10303   0.10303  80.47
     14882.8     1341.204   1697.9989   3755.3968   0.26528   0.26528 -89.58
     1519010     6067.535   1051.6805   3902.2664   0.03086   0.03086  70.86
    12671.22     1595.556    963.8189   3976.6906   0.42971   0.42971 -12.60
    8859.266     1318.275    934.1592   3473.3843   0.32932   0.32932   0.42
     4591308      2124.22    897.6188   3685.8519   0.00087   0.00087   2.55
    3957.176     864.2746   1767.4282   3924.4817   0.27188   0.27188  88.25
    96775.67     4040.624   1579.3098   3958.1052   0.20038   0.20038  -1.31
    12209.25     1647.266   1894.8236   3959.9362   0.39468   0.39468 -88.87
    97567.55     1789.218     53.2586   3906.6082   0.04162   0.04162 -83.92
    32931.01     2702.225    229.7789   3922.7244   0.23939   0.23939 -85.27
     50659.7     2378.158    265.9707   3818.2203   0.11134   0.11134  82.61
    32607.82     2263.202    293.2860   3878.1289   0.23935   0.23935  -1.30
     41049.6     1912.755   1063.9497   3832.7640   0.09592   0.09592  -9.99
    104506.2     2109.819    765.0457   3884.7952   0.04170   0.04170  48.81
    13885.57     1835.481    311.2212   3873.4262   0.35256   0.35256 -86.95
    127892.5     1847.897     24.4375   3898.6322   0.03398   0.03398  22.06
    32541.97     1746.098    937.6399   3866.1825   0.14191   0.14191 -67.82
    87972.72     2721.898    666.7977   3847.5032   0.10215   0.10215 -78.82
    10357.31     1571.489   1082.4208   3922.5900   0.30780   0.30780  37.72
    16688.19     1847.897   1685.0974   3838.2012   0.29289   0.29289 -89.49
    235950.5      1407.75   1678.8153   3863.2708   0.00639   0.00639 -48.13
    4223.129     604.8662    837.0632   3830.0479   0.12102   0.12097  89.90
    6265.551     709.2685    856.9595   3946.6700   0.09102   0.09074 -90.00
    6785.625     1271.179    790.2163   3847.4623   0.34136   0.34136   1.09
    17848.25     1614.551    372.4607   3824.5435   0.23057   0.23057 -66.81
    27288.55     1814.599   1207.7621   3759.0349   0.20262   0.20262 -87.62
    31557.48     2607.481    519.2350   3756.8324   0.24255   0.24255 -72.10
    7930.848     1283.115   1595.4039   3841.6716   0.38238   0.38238 -84.04
    44940.92     3004.101    997.4643   3858.9097   0.29584   0.29584  89.07
    3650.102     837.3994   1478.4277   3810.0443   0.34735   0.34735 -89.76
    23776.61     1532.195    204.7515   3695.0941   0.20769   0.20769   5.94
     17770.1     1670.241   1981.1879   3541.3369   0.21417   0.21417   5.59
    22873.71     1600.326    313.0049   3829.3996   0.16965   0.16965 -89.45
    25803.97     1647.266   1590.0203   3769.2832   0.26014   0.26014 -88.50
    9426.047     956.3774   1966.0254   3807.6576   0.16870   0.16870  87.47
    656448.6     2051.201     68.5847   3824.4855   0.00656   0.00656 -28.36
    9842.012     1346.875   1312.8447   3798.3966   0.19526   0.19526   2.80
    155072.3     1471.289   1180.0273   3770.1191   0.01228   0.01228  -6.50
    16856.39     1571.489   1209.1257   3732.7908   0.20595   0.20595 -72.37
    8483.379     1491.867    902.3147   3778.2966   0.37348   0.37348 -45.48
    8911.199     846.4526    616.9926   3813.6366   0.17634   0.17634  86.63
    14848.38     790.5797   1218.7853   3706.6105   0.03161   0.03139  89.95
    5443.129     664.8944   1569.3132   3815.2698   0.06399   0.06341   1.54
    10223.81     1460.891   1086.7072   3670.0556   0.24887   0.24887 -33.12
    60303.49     2326.312   1043.2868   3809.2887   0.11224   0.11224  61.51
    21780.59      1190.68   1690.3195   3497.3626   0.07067   0.07067 -81.97
    10266.73     1265.168   1432.7723   3795.7319   0.21995   0.21995 -29.94
    80667.34     1209.732   1980.2763   3762.1360   0.01631   0.01631 -73.47
     6071.93     1003.057    345.9273   3779.2989   0.31872   0.31872  84.99
    9342.039     1532.195    371.1127   3718.5341   0.28966   0.28966 -87.33
    36128.37     1839.629   1860.9913   3768.8656   0.10611   0.10611  -3.21
    8706.395     1380.412   1419.6702   3783.2634   0.26176   0.26176 -38.65
    311827.3      2952.92   1818.6456   3749.3714   0.03665   0.03665 -83.33
    109027.9     2810.079   1348.8266   3768.9260   0.10582   0.10582  -2.16
    21049.64     1429.243    354.8583   3691.9774   0.14605   0.14605  78.19
    6272.109     790.5797   1714.8203   3766.8975   0.22287   0.22287  69.05
    7755.668     1151.631    235.1845   3721.1151   0.39236   0.39236 -29.23
    22894.95      1476.46     78.2097   3726.1895   0.18235   0.18235 -43.66
    16693.62     1835.481   1260.5862   3725.4941   0.22537   0.22537 -16.03
    4270.703     698.4393    939.8170   3710.0222   0.21968   0.21968   1.50
       82222     2866.475    230.3170   3767.2633   0.10770   0.10770   8.65
    135861.1     2138.525     10.6837   3701.2027   0.04064   0.04064  89.89
    28619.54     2279.979    421.3856   3680.7755   0.22842   0.22842 -75.93
    6124.949     1010.628    966.0790   3724.7950   0.39784   0.39784 -71.06
    5093.883     979.9952    880.5842   3447.0684   0.30217   0.30217   3.61
    64741.28     2688.084    874.4527   3696.7622   0.11040   0.11040   0.01
    16701.72     1706.359   1861.0011   3513.1396   0.20951   0.20951   1.06
     14332.1     1912.755   1576.9472   3731.9333   0.36308   0.36308 -13.09
    38696.43     2326.312   1327.3638   3618.0538   0.19175   0.19175  87.66
    9065.223     1234.678   1819.3493   3690.1197   0.20357   0.20357  80.54
    32578.44     2724.697    380.4496   3679.6615   0.34984   0.34984 -22.14
    7270.242     898.8591   1891.3549   3551.8494   0.14803   0.14803  -1.38
    7576.871     1246.964   1110.2513   3547.4753   0.28942   0.28942  83.63
    12134.36     1486.749    179.0250   3594.8997   0.25991   0.25991  39.78
    9352.633     1496.968    954.0773   3683.6386   0.31863   0.31863  -4.74
    86303.38     2524.305    497.8106   3644.4204   0.07681   0.07681 -82.62
    57163.16     1595.556    238.2695   3684.9495   0.05973   0.05973  -0.10
4.804742e+07     5977.678    147.4398   3509.1247   0.00093   0.00093  -0.05
     3965.66      617.339   1364.4650   3621.4423   0.11592   0.11590   0.78
    262284.7     2163.331   1162.3808   3634.8088   0.01359   0.01359  -1.49
    28296.32     2266.567    858.8939   3687.3708   0.21211   0.21211 -86.87
    22297.72     2002.311   1044.2169   3539.7432   0.23190   0.23190  69.45
    16701.07     1532.195   1727.4591   3611.1297   0.28313   0.28313  85.80
    13052.81     1701.886    462.4358   3578.9805   0.30295   0.30295   1.40
    16227.29     653.3302   2015.3266   3574.9699   0.01417   0.01081  -0.49
    21109.84     2138.525    840.8877   3591.6458   0.27517   0.27517  86.59
    11595.27     1637.985   1421.3732   3595.9941   0.30561   0.30561  -0.01
    31208.11     2425.757    493.4320   3557.7417   0.20907   0.20907  88.81
     21490.2     2120.629   1299.0154   3604.3795   0.38195   0.38195  -3.36
     3575197     1975.485    616.9370   3574.4959   0.00095   0.00095  89.69
    7788.465     1265.168   1404.8025   3545.1439   0.36467   0.36467  30.54
    46398.52     1864.323   1991.9569   3593.5190   0.06587   0.06587  -0.06
    23147.37     1679.344    312.4178   3525.0067   0.16130   0.16130 -89.21
    26459.28     1418.537    169.5390   3547.7793   0.06236   0.06236  -3.78
    22524.86     2194.812   1246.4147   3570.6651   0.27514   0.27514  49.67
     26098.7     2503.079   1627.1932   3543.0144   0.36122   0.36122 -76.65
    6303.633     1097.406   1208.7835   3570.3875   0.36503   0.36503   8.26
    11393.26     1374.879   2033.7247   3519.8702   0.19624   0.19624  19.54
    5859.984     1047.659    847.5943   3462.6344   0.38001   0.38001  88.63
    58512.24     1928.629    914.4126   3515.4617   0.08167   0.08167  81.29
    5222.254     790.5797   1233.6459   3468.6074   0.22875   0.22875  59.78
    24994.59     780.8789   1605.5769   3243.7328   0.01587   0.01554   0.21
     43724.6     2932.198   1205.4833   3537.6117   0.24533   0.24533  51.39
    5790.379      1104.33   1797.1399   3531.5749   0.27437   0.27437  86.52
    21417.38     1561.758   1562.0619   3509.4381   0.14190   0.14190  -0.41
    4386.109     873.0492   1822.5999   3437.8621   0.27689   0.27689   2.57
    9357.195     1460.891   1589.3702   3478.1083   0.32805   0.32805  84.41
    12337.99     972.1864   1227.1487   3251.6504   0.04673   0.04649 -89.99
    571976.4     1391.411   1942.7025   3427.7185   0.00225   0.00225 -49.54
    192724.4     2524.305    516.4987   3234.9521   0.03315   0.03315 -89.38
    19759.96     2102.581    435.5834   3299.4298   0.30780   0.30780 -52.65
    22613.97     1532.195   1202.6124   3232.2649   0.15300   0.15300  89.36
